#  E (eV)   dos(E)     Int dos(E) EFermi =    6.317 eV
  -9.000  0.0000E+00  0.0000E+00
  -8.990  0.0000E+00  0.0000E+00
  -8.980  0.0000E+00  0.0000E+00
  -8.970  0.0000E+00  0.0000E+00
  -8.960  0.0000E+00  0.0000E+00
  -8.950  0.0000E+00  0.0000E+00
  -8.940  0.0000E+00  0.0000E+00
  -8.930  0.0000E+00  0.0000E+00
  -8.920  0.0000E+00  0.0000E+00
  -8.910  0.0000E+00  0.0000E+00
  -8.900  0.0000E+00  0.0000E+00
  -8.890  0.0000E+00  0.0000E+00
  -8.880  0.0000E+00  0.0000E+00
  -8.870  0.0000E+00  0.0000E+00
  -8.860  0.0000E+00  0.0000E+00
  -8.850  0.0000E+00  0.0000E+00
  -8.840  0.0000E+00  0.0000E+00
  -8.830  0.0000E+00  0.0000E+00
  -8.820  0.0000E+00  0.0000E+00
  -8.810  0.0000E+00  0.0000E+00
  -8.800  0.0000E+00  0.0000E+00
  -8.790  0.0000E+00  0.0000E+00
  -8.780  0.0000E+00  0.0000E+00
  -8.770  0.0000E+00  0.0000E+00
  -8.760  0.0000E+00  0.0000E+00
  -8.750  0.0000E+00  0.0000E+00
  -8.740  0.0000E+00  0.0000E+00
  -8.730  0.0000E+00  0.0000E+00
  -8.720  0.0000E+00  0.0000E+00
  -8.710  0.0000E+00  0.0000E+00
  -8.700  0.0000E+00  0.0000E+00
  -8.690  0.0000E+00  0.0000E+00
  -8.680  0.0000E+00  0.0000E+00
  -8.670  0.0000E+00  0.0000E+00
  -8.660  0.0000E+00  0.0000E+00
  -8.650  0.0000E+00  0.0000E+00
  -8.640  0.0000E+00  0.0000E+00
  -8.630  0.0000E+00  0.0000E+00
  -8.620  0.0000E+00  0.0000E+00
  -8.610  0.0000E+00  0.0000E+00
  -8.600  0.0000E+00  0.0000E+00
  -8.590  0.0000E+00  0.0000E+00
  -8.580  0.0000E+00  0.0000E+00
  -8.570  0.0000E+00  0.0000E+00
  -8.560  0.0000E+00  0.0000E+00
  -8.550  0.0000E+00  0.0000E+00
  -8.540  0.0000E+00  0.0000E+00
  -8.530  0.0000E+00  0.0000E+00
  -8.520  0.0000E+00  0.0000E+00
  -8.510  0.0000E+00  0.0000E+00
  -8.500  0.0000E+00  0.0000E+00
  -8.490  0.0000E+00  0.0000E+00
  -8.480  0.0000E+00  0.0000E+00
  -8.470  0.0000E+00  0.0000E+00
  -8.460  0.0000E+00  0.0000E+00
  -8.450  0.0000E+00  0.0000E+00
  -8.440  0.0000E+00  0.0000E+00
  -8.430  0.0000E+00  0.0000E+00
  -8.420  0.0000E+00  0.0000E+00
  -8.410  0.0000E+00  0.0000E+00
  -8.400  0.0000E+00  0.0000E+00
  -8.390  0.0000E+00  0.0000E+00
  -8.380  0.0000E+00  0.0000E+00
  -8.370  0.0000E+00  0.0000E+00
  -8.360  0.0000E+00  0.0000E+00
  -8.350  0.0000E+00  0.0000E+00
  -8.340  0.0000E+00  0.0000E+00
  -8.330  0.0000E+00  0.0000E+00
  -8.320  0.0000E+00  0.0000E+00
  -8.310  0.0000E+00  0.0000E+00
  -8.300  0.0000E+00  0.0000E+00
  -8.290  0.0000E+00  0.0000E+00
  -8.280  0.0000E+00  0.0000E+00
  -8.270  0.0000E+00  0.0000E+00
  -8.260  0.0000E+00  0.0000E+00
  -8.250  0.0000E+00  0.0000E+00
  -8.240  0.0000E+00  0.0000E+00
  -8.230  0.0000E+00  0.0000E+00
  -8.220  0.0000E+00  0.0000E+00
  -8.210  0.0000E+00  0.0000E+00
  -8.200  0.0000E+00  0.0000E+00
  -8.190  0.0000E+00  0.0000E+00
  -8.180  0.0000E+00  0.0000E+00
  -8.170  0.0000E+00  0.0000E+00
  -8.160  0.0000E+00  0.0000E+00
  -8.150  0.0000E+00  0.0000E+00
  -8.140  0.0000E+00  0.0000E+00
  -8.130  0.0000E+00  0.0000E+00
  -8.120  0.0000E+00  0.0000E+00
  -8.110  0.0000E+00  0.0000E+00
  -8.100  0.0000E+00  0.0000E+00
  -8.090  0.0000E+00  0.0000E+00
  -8.080  0.0000E+00  0.0000E+00
  -8.070  0.0000E+00  0.0000E+00
  -8.060  0.0000E+00  0.0000E+00
  -8.050  0.0000E+00  0.0000E+00
  -8.040  0.0000E+00  0.0000E+00
  -8.030  0.0000E+00  0.0000E+00
  -8.020  0.0000E+00  0.0000E+00
  -8.010  0.0000E+00  0.0000E+00
  -8.000  0.0000E+00  0.0000E+00
  -7.990  0.0000E+00  0.0000E+00
  -7.980  0.0000E+00  0.0000E+00
  -7.970  0.0000E+00  0.0000E+00
  -7.960  0.0000E+00  0.0000E+00
  -7.950  0.0000E+00  0.0000E+00
  -7.940  0.0000E+00  0.0000E+00
  -7.930  0.0000E+00  0.0000E+00
  -7.920  0.0000E+00  0.0000E+00
  -7.910  0.0000E+00  0.0000E+00
  -7.900  0.0000E+00  0.0000E+00
  -7.890  0.0000E+00  0.0000E+00
  -7.880  0.0000E+00  0.0000E+00
  -7.870  0.0000E+00  0.0000E+00
  -7.860  0.0000E+00  0.0000E+00
  -7.850  0.0000E+00  0.0000E+00
  -7.840  0.0000E+00  0.0000E+00
  -7.830  0.0000E+00  0.0000E+00
  -7.820  0.0000E+00  0.0000E+00
  -7.810  0.0000E+00  0.0000E+00
  -7.800  0.0000E+00  0.0000E+00
  -7.790  0.0000E+00  0.0000E+00
  -7.780  0.0000E+00  0.0000E+00
  -7.770  0.0000E+00  0.0000E+00
  -7.760  0.0000E+00  0.0000E+00
  -7.750  0.0000E+00  0.0000E+00
  -7.740  0.0000E+00  0.0000E+00
  -7.730  0.0000E+00  0.0000E+00
  -7.720  0.0000E+00  0.0000E+00
  -7.710  0.0000E+00  0.0000E+00
  -7.700  0.0000E+00  0.0000E+00
  -7.690  0.0000E+00  0.0000E+00
  -7.680  0.0000E+00  0.0000E+00
  -7.670  0.0000E+00  0.0000E+00
  -7.660  0.0000E+00  0.0000E+00
  -7.650  0.0000E+00  0.0000E+00
  -7.640  0.0000E+00  0.0000E+00
  -7.630  0.0000E+00  0.0000E+00
  -7.620  0.0000E+00  0.0000E+00
  -7.610  0.0000E+00  0.0000E+00
  -7.600  0.0000E+00  0.0000E+00
  -7.590  0.0000E+00  0.0000E+00
  -7.580  0.0000E+00  0.0000E+00
  -7.570  0.0000E+00  0.0000E+00
  -7.560  0.0000E+00  0.0000E+00
  -7.550  0.0000E+00  0.0000E+00
  -7.540  0.0000E+00  0.0000E+00
  -7.530  0.0000E+00  0.0000E+00
  -7.520  0.0000E+00  0.0000E+00
  -7.510  0.0000E+00  0.0000E+00
  -7.500  0.0000E+00  0.0000E+00
  -7.490  0.0000E+00  0.0000E+00
  -7.480  0.0000E+00  0.0000E+00
  -7.470  0.0000E+00  0.0000E+00
  -7.460  0.0000E+00  0.0000E+00
  -7.450  0.0000E+00  0.0000E+00
  -7.440  0.0000E+00  0.0000E+00
  -7.430  0.0000E+00  0.0000E+00
  -7.420  0.0000E+00  0.0000E+00
  -7.410  0.0000E+00  0.0000E+00
  -7.400  0.0000E+00  0.0000E+00
  -7.390  0.0000E+00  0.0000E+00
  -7.380  0.0000E+00  0.0000E+00
  -7.370  0.0000E+00  0.0000E+00
  -7.360  0.0000E+00  0.0000E+00
  -7.350  0.0000E+00  0.0000E+00
  -7.340  0.0000E+00  0.0000E+00
  -7.330  0.0000E+00  0.0000E+00
  -7.320  0.0000E+00  0.0000E+00
  -7.310  0.0000E+00  0.0000E+00
  -7.300  0.0000E+00  0.0000E+00
  -7.290  0.0000E+00  0.0000E+00
  -7.280  0.0000E+00  0.0000E+00
  -7.270  0.0000E+00  0.0000E+00
  -7.260  0.0000E+00  0.0000E+00
  -7.250  0.0000E+00  0.0000E+00
  -7.240  0.0000E+00  0.0000E+00
  -7.230  0.0000E+00  0.0000E+00
  -7.220  0.0000E+00  0.0000E+00
  -7.210  0.0000E+00  0.0000E+00
  -7.200  0.0000E+00  0.0000E+00
  -7.190  0.0000E+00  0.0000E+00
  -7.180  0.0000E+00  0.0000E+00
  -7.170  0.0000E+00  0.0000E+00
  -7.160  0.0000E+00  0.0000E+00
  -7.150  0.0000E+00  0.0000E+00
  -7.140  0.0000E+00  0.0000E+00
  -7.130  0.0000E+00  0.0000E+00
  -7.120  0.0000E+00  0.0000E+00
  -7.110  0.0000E+00  0.0000E+00
  -7.100  0.0000E+00  0.0000E+00
  -7.090  0.0000E+00  0.0000E+00
  -7.080  0.0000E+00  0.0000E+00
  -7.070  0.0000E+00  0.0000E+00
  -7.060  0.0000E+00  0.0000E+00
  -7.050  0.0000E+00  0.0000E+00
  -7.040  0.0000E+00  0.0000E+00
  -7.030  0.0000E+00  0.0000E+00
  -7.020  0.0000E+00  0.0000E+00
  -7.010  0.0000E+00  0.0000E+00
  -7.000  0.0000E+00  0.0000E+00
  -6.990  0.0000E+00  0.0000E+00
  -6.980  0.0000E+00  0.0000E+00
  -6.970  0.0000E+00  0.0000E+00
  -6.960  0.0000E+00  0.0000E+00
  -6.950  0.0000E+00  0.0000E+00
  -6.940  0.0000E+00  0.0000E+00
  -6.930  0.0000E+00  0.0000E+00
  -6.920  0.0000E+00  0.0000E+00
  -6.910  0.0000E+00  0.0000E+00
  -6.900  0.0000E+00  0.0000E+00
  -6.890  0.0000E+00  0.0000E+00
  -6.880  0.0000E+00  0.0000E+00
  -6.870  0.0000E+00  0.0000E+00
  -6.860  0.0000E+00  0.0000E+00
  -6.850  0.0000E+00  0.0000E+00
  -6.840  0.0000E+00  0.0000E+00
  -6.830  0.0000E+00  0.0000E+00
  -6.820  0.0000E+00  0.0000E+00
  -6.810  0.0000E+00  0.0000E+00
  -6.800  0.0000E+00  0.0000E+00
  -6.790  0.0000E+00  0.0000E+00
  -6.780  0.0000E+00  0.0000E+00
  -6.770  0.0000E+00  0.0000E+00
  -6.760  0.0000E+00  0.0000E+00
  -6.750  0.0000E+00  0.0000E+00
  -6.740  0.0000E+00  0.0000E+00
  -6.730  0.0000E+00  0.0000E+00
  -6.720  0.0000E+00  0.0000E+00
  -6.710  0.0000E+00  0.0000E+00
  -6.700  0.0000E+00  0.0000E+00
  -6.690  0.0000E+00  0.0000E+00
  -6.680  0.0000E+00  0.0000E+00
  -6.670  0.0000E+00  0.0000E+00
  -6.660  0.0000E+00  0.0000E+00
  -6.650  0.0000E+00  0.0000E+00
  -6.640  0.0000E+00  0.0000E+00
  -6.630  0.0000E+00  0.0000E+00
  -6.620  0.0000E+00  0.0000E+00
  -6.610  0.0000E+00  0.0000E+00
  -6.600  0.0000E+00  0.0000E+00
  -6.590  0.0000E+00  0.0000E+00
  -6.580  0.0000E+00  0.0000E+00
  -6.570  0.0000E+00  0.0000E+00
  -6.560  0.0000E+00  0.0000E+00
  -6.550  0.0000E+00  0.0000E+00
  -6.540  0.0000E+00  0.0000E+00
  -6.530  0.0000E+00  0.0000E+00
  -6.520  0.0000E+00  0.0000E+00
  -6.510  0.0000E+00  0.0000E+00
  -6.500  0.0000E+00  0.0000E+00
  -6.490  0.0000E+00  0.0000E+00
  -6.480  0.0000E+00  0.0000E+00
  -6.470  0.0000E+00  0.0000E+00
  -6.460  0.0000E+00  0.0000E+00
  -6.450  0.0000E+00  0.0000E+00
  -6.440  0.0000E+00  0.0000E+00
  -6.430  0.0000E+00  0.0000E+00
  -6.420  0.0000E+00  0.0000E+00
  -6.410  0.0000E+00  0.0000E+00
  -6.400  0.0000E+00  0.0000E+00
  -6.390  0.0000E+00  0.0000E+00
  -6.380  0.0000E+00  0.0000E+00
  -6.370  0.0000E+00  0.0000E+00
  -6.360  0.0000E+00  0.0000E+00
  -6.350  0.0000E+00  0.0000E+00
  -6.340  0.0000E+00  0.0000E+00
  -6.330  0.0000E+00  0.0000E+00
  -6.320  0.0000E+00  0.0000E+00
  -6.310  0.0000E+00  0.0000E+00
  -6.300  0.0000E+00  0.0000E+00
  -6.290  0.0000E+00  0.0000E+00
  -6.280  0.0000E+00  0.0000E+00
  -6.270  0.0000E+00  0.0000E+00
  -6.260  0.0000E+00  0.0000E+00
  -6.250  0.0000E+00  0.0000E+00
  -6.240  0.0000E+00  0.0000E+00
  -6.230  0.0000E+00  0.0000E+00
  -6.220  0.0000E+00  0.0000E+00
  -6.210  0.0000E+00  0.0000E+00
  -6.200  0.0000E+00  0.0000E+00
  -6.190  0.0000E+00  0.0000E+00
  -6.180  0.0000E+00  0.0000E+00
  -6.170  0.0000E+00  0.0000E+00
  -6.160  0.0000E+00  0.0000E+00
  -6.150  0.0000E+00  0.0000E+00
  -6.140  0.0000E+00  0.0000E+00
  -6.130  0.0000E+00  0.0000E+00
  -6.120  0.0000E+00  0.0000E+00
  -6.110  0.0000E+00  0.0000E+00
  -6.100  0.0000E+00  0.0000E+00
  -6.090  0.0000E+00  0.0000E+00
  -6.080  0.0000E+00  0.0000E+00
  -6.070  0.0000E+00  0.0000E+00
  -6.060  0.0000E+00  0.0000E+00
  -6.050  0.0000E+00  0.0000E+00
  -6.040  0.0000E+00  0.0000E+00
  -6.030  0.0000E+00  0.0000E+00
  -6.020  0.0000E+00  0.0000E+00
  -6.010  0.0000E+00  0.0000E+00
  -6.000  0.0000E+00  0.0000E+00
  -5.990  0.0000E+00  0.0000E+00
  -5.980  0.0000E+00  0.0000E+00
  -5.970  0.0000E+00  0.0000E+00
  -5.960  0.0000E+00  0.0000E+00
  -5.950  0.0000E+00  0.0000E+00
  -5.940  0.0000E+00  0.0000E+00
  -5.930  0.0000E+00  0.0000E+00
  -5.920  0.0000E+00  0.0000E+00
  -5.910  0.0000E+00  0.0000E+00
  -5.900  0.0000E+00  0.0000E+00
  -5.890  0.0000E+00  0.0000E+00
  -5.880  0.0000E+00  0.0000E+00
  -5.870  0.0000E+00  0.0000E+00
  -5.860  0.0000E+00  0.0000E+00
  -5.850  0.2033E-03  0.3844E-06
  -5.840  0.1551E-02  0.8104E-05
  -5.830  0.4162E-02  0.3562E-04
  -5.820  0.8036E-02  0.9555E-04
  -5.810  0.1317E-01  0.2005E-03
  -5.800  0.1957E-01  0.3632E-03
  -5.790  0.2723E-01  0.5962E-03
  -5.780  0.3616E-01  0.9121E-03
  -5.770  0.4635E-01  0.1324E-02
  -5.760  0.1096E+00  0.2038E-02
  -5.750  0.1422E+00  0.3351E-02
  -5.740  0.1094E+00  0.4663E-02
  -5.730  0.9104E-01  0.5584E-02
  -5.720  0.9615E-01  0.6520E-02
  -5.710  0.1014E+00  0.7508E-02
  -5.700  0.1067E+00  0.8548E-02
  -5.690  0.1121E+00  0.9642E-02
  -5.680  0.1176E+00  0.1079E-01
  -5.670  0.1233E+00  0.1199E-01
  -5.660  0.1290E+00  0.1326E-01
  -5.650  0.1349E+00  0.1458E-01
  -5.640  0.1409E+00  0.1595E-01
  -5.630  0.1470E+00  0.1739E-01
  -5.620  0.1531E+00  0.1889E-01
  -5.610  0.1627E+00  0.2047E-01
  -5.600  0.1714E+00  0.2214E-01
  -5.590  0.1790E+00  0.2390E-01
  -5.580  0.1855E+00  0.2572E-01
  -5.570  0.1910E+00  0.2760E-01
  -5.560  0.1954E+00  0.2954E-01
  -5.550  0.1987E+00  0.3151E-01
  -5.540  0.2010E+00  0.3351E-01
  -5.530  0.2008E+00  0.3552E-01
  -5.520  0.1930E+00  0.3749E-01
  -5.510  0.1902E+00  0.3940E-01
  -5.500  0.1922E+00  0.4131E-01
  -5.490  0.1955E+00  0.4325E-01
  -5.480  0.1988E+00  0.4522E-01
  -5.470  0.2022E+00  0.4722E-01
  -5.460  0.2057E+00  0.4926E-01
  -5.450  0.2093E+00  0.5134E-01
  -5.440  0.2130E+00  0.5345E-01
  -5.430  0.2168E+00  0.5560E-01
  -5.420  0.2207E+00  0.5779E-01
  -5.410  0.2247E+00  0.6001E-01
  -5.400  0.2288E+00  0.6228E-01
  -5.390  0.2330E+00  0.6459E-01
  -5.380  0.2373E+00  0.6694E-01
  -5.370  0.2416E+00  0.6934E-01
  -5.360  0.2459E+00  0.7177E-01
  -5.350  0.2503E+00  0.7426E-01
  -5.340  0.2546E+00  0.7678E-01
  -5.330  0.2590E+00  0.7935E-01
  -5.320  0.2633E+00  0.8196E-01
  -5.310  0.2677E+00  0.8461E-01
  -5.300  0.2721E+00  0.8731E-01
  -5.290  0.2750E+00  0.9005E-01
  -5.280  0.2766E+00  0.9281E-01
  -5.270  0.2768E+00  0.9558E-01
  -5.260  0.2788E+00  0.9835E-01
  -5.250  0.2810E+00  0.1012E+00
  -5.240  0.2832E+00  0.1040E+00
  -5.230  0.2853E+00  0.1068E+00
  -5.220  0.2874E+00  0.1097E+00
  -5.210  0.2894E+00  0.1126E+00
  -5.200  0.2913E+00  0.1155E+00
  -5.190  0.2932E+00  0.1184E+00
  -5.180  0.2951E+00  0.1213E+00
  -5.170  0.2969E+00  0.1243E+00
  -5.160  0.2986E+00  0.1273E+00
  -5.150  0.2996E+00  0.1303E+00
  -5.140  0.3005E+00  0.1333E+00
  -5.130  0.3016E+00  0.1363E+00
  -5.120  0.3031E+00  0.1393E+00
  -5.110  0.3049E+00  0.1423E+00
  -5.100  0.3070E+00  0.1454E+00
  -5.090  0.3094E+00  0.1485E+00
  -5.080  0.3121E+00  0.1516E+00
  -5.070  0.3150E+00  0.1547E+00
  -5.060  0.3182E+00  0.1579E+00
  -5.050  0.3216E+00  0.1611E+00
  -5.040  0.3250E+00  0.1643E+00
  -5.030  0.3284E+00  0.1676E+00
  -5.020  0.3318E+00  0.1709E+00
  -5.010  0.3352E+00  0.1742E+00
  -5.000  0.3387E+00  0.1776E+00
  -4.990  0.3422E+00  0.1810E+00
  -4.980  0.3457E+00  0.1844E+00
  -4.970  0.3492E+00  0.1879E+00
  -4.960  0.3528E+00  0.1914E+00
  -4.950  0.3563E+00  0.1950E+00
  -4.940  0.3599E+00  0.1985E+00
  -4.930  0.3635E+00  0.2022E+00
  -4.920  0.3670E+00  0.2058E+00
  -4.910  0.3700E+00  0.2095E+00
  -4.900  0.3726E+00  0.2132E+00
  -4.890  0.3748E+00  0.2169E+00
  -4.880  0.3765E+00  0.2207E+00
  -4.870  0.3778E+00  0.2245E+00
  -4.860  0.3788E+00  0.2283E+00
  -4.850  0.3792E+00  0.2321E+00
  -4.840  0.3791E+00  0.2358E+00
  -4.830  0.3805E+00  0.2396E+00
  -4.820  0.3837E+00  0.2435E+00
  -4.810  0.3858E+00  0.2473E+00
  -4.800  0.3879E+00  0.2512E+00
  -4.790  0.3899E+00  0.2551E+00
  -4.780  0.3920E+00  0.2590E+00
  -4.770  0.3941E+00  0.2629E+00
  -4.760  0.3962E+00  0.2669E+00
  -4.750  0.3983E+00  0.2708E+00
  -4.740  0.4004E+00  0.2748E+00
  -4.730  0.4026E+00  0.2788E+00
  -4.720  0.4047E+00  0.2829E+00
  -4.710  0.4069E+00  0.2869E+00
  -4.700  0.4091E+00  0.2910E+00
  -4.690  0.4112E+00  0.2951E+00
  -4.680  0.4133E+00  0.2992E+00
  -4.670  0.4154E+00  0.3034E+00
  -4.660  0.4174E+00  0.3075E+00
  -4.650  0.4195E+00  0.3117E+00
  -4.640  0.4215E+00  0.3159E+00
  -4.630  0.4234E+00  0.3202E+00
  -4.620  0.4252E+00  0.3244E+00
  -4.610  0.4273E+00  0.3287E+00
  -4.600  0.4296E+00  0.3330E+00
  -4.590  0.4322E+00  0.3373E+00
  -4.580  0.4349E+00  0.3416E+00
  -4.570  0.4377E+00  0.3460E+00
  -4.560  0.4406E+00  0.3504E+00
  -4.550  0.4436E+00  0.3548E+00
  -4.540  0.4466E+00  0.3592E+00
  -4.530  0.4497E+00  0.3637E+00
  -4.520  0.4528E+00  0.3682E+00
  -4.510  0.4560E+00  0.3728E+00
  -4.500  0.4593E+00  0.3773E+00
  -4.490  0.4626E+00  0.3819E+00
  -4.480  0.4659E+00  0.3866E+00
  -4.470  0.4693E+00  0.3913E+00
  -4.460  0.4727E+00  0.3960E+00
  -4.450  0.4761E+00  0.4007E+00
  -4.440  0.4796E+00  0.4055E+00
  -4.430  0.4831E+00  0.4103E+00
  -4.420  0.4866E+00  0.4152E+00
  -4.410  0.4900E+00  0.4200E+00
  -4.400  0.4924E+00  0.4250E+00
  -4.390  0.4943E+00  0.4299E+00
  -4.380  0.4958E+00  0.4348E+00
  -4.370  0.4975E+00  0.4398E+00
  -4.360  0.4997E+00  0.4448E+00
  -4.350  0.5018E+00  0.4498E+00
  -4.340  0.5039E+00  0.4548E+00
  -4.330  0.5058E+00  0.4599E+00
  -4.320  0.5078E+00  0.4649E+00
  -4.310  0.5096E+00  0.4700E+00
  -4.300  0.5114E+00  0.4751E+00
  -4.290  0.5131E+00  0.4803E+00
  -4.280  0.5150E+00  0.4854E+00
  -4.270  0.5173E+00  0.4906E+00
  -4.260  0.5199E+00  0.4957E+00
  -4.250  0.5229E+00  0.5010E+00
  -4.240  0.5263E+00  0.5062E+00
  -4.230  0.5297E+00  0.5115E+00
  -4.220  0.5326E+00  0.5168E+00
  -4.210  0.5355E+00  0.5221E+00
  -4.200  0.5385E+00  0.5275E+00
  -4.190  0.5416E+00  0.5329E+00
  -4.180  0.5446E+00  0.5383E+00
  -4.170  0.5478E+00  0.5438E+00
  -4.160  0.5509E+00  0.5493E+00
  -4.150  0.5540E+00  0.5548E+00
  -4.140  0.5572E+00  0.5604E+00
  -4.130  0.5604E+00  0.5660E+00
  -4.120  0.5636E+00  0.5716E+00
  -4.110  0.5668E+00  0.5772E+00
  -4.100  0.5700E+00  0.5829E+00
  -4.090  0.5733E+00  0.5886E+00
  -4.080  0.5766E+00  0.5944E+00
  -4.070  0.5799E+00  0.6002E+00
  -4.060  0.5832E+00  0.6060E+00
  -4.050  0.5865E+00  0.6118E+00
  -4.040  0.5899E+00  0.6177E+00
  -4.030  0.5932E+00  0.6236E+00
  -4.020  0.5965E+00  0.6296E+00
  -4.010  0.6001E+00  0.6356E+00
  -4.000  0.6040E+00  0.6416E+00
  -3.990  0.6081E+00  0.6476E+00
  -3.980  0.6124E+00  0.6537E+00
  -3.970  0.6168E+00  0.6599E+00
  -3.960  0.6214E+00  0.6661E+00
  -3.950  0.6261E+00  0.6723E+00
  -3.940  0.6309E+00  0.6786E+00
  -3.930  0.6358E+00  0.6849E+00
  -3.920  0.6409E+00  0.6913E+00
  -3.910  0.6461E+00  0.6978E+00
  -3.900  0.6514E+00  0.7042E+00
  -3.890  0.6569E+00  0.7108E+00
  -3.880  0.6625E+00  0.7174E+00
  -3.870  0.6682E+00  0.7240E+00
  -3.860  0.6741E+00  0.7307E+00
  -3.850  0.6800E+00  0.7375E+00
  -3.840  0.6859E+00  0.7443E+00
  -3.830  0.6919E+00  0.7512E+00
  -3.820  0.6979E+00  0.7582E+00
  -3.810  0.7040E+00  0.7652E+00
  -3.800  0.7100E+00  0.7723E+00
  -3.790  0.7157E+00  0.7794E+00
  -3.780  0.7223E+00  0.7866E+00
  -3.770  0.7292E+00  0.7938E+00
  -3.760  0.7362E+00  0.8012E+00
  -3.750  0.7434E+00  0.8086E+00
  -3.740  0.7507E+00  0.8160E+00
  -3.730  0.7582E+00  0.8236E+00
  -3.720  0.7659E+00  0.8312E+00
  -3.710  0.7737E+00  0.8389E+00
  -3.700  0.7817E+00  0.8467E+00
  -3.690  0.7898E+00  0.8545E+00
  -3.680  0.8020E+00  0.8625E+00
  -3.670  0.8633E+00  0.8708E+00
  -3.660  0.8798E+00  0.8795E+00
  -3.650  0.8947E+00  0.8884E+00
  -3.640  0.9078E+00  0.8974E+00
  -3.630  0.9191E+00  0.9065E+00
  -3.620  0.9287E+00  0.9158E+00
  -3.610  0.9366E+00  0.9251E+00
  -3.600  0.9427E+00  0.9345E+00
  -3.590  0.9467E+00  0.9440E+00
  -3.580  0.9444E+00  0.9534E+00
  -3.570  0.9349E+00  0.9628E+00
  -3.560  0.9180E+00  0.9721E+00
  -3.550  0.9081E+00  0.9812E+00
  -3.540  0.9054E+00  0.9903E+00
  -3.530  0.9028E+00  0.9993E+00
  -3.520  0.9003E+00  0.1008E+01
  -3.510  0.8979E+00  0.1017E+01
  -3.500  0.8956E+00  0.1026E+01
  -3.490  0.8934E+00  0.1035E+01
  -3.480  0.8913E+00  0.1044E+01
  -3.470  0.8893E+00  0.1053E+01
  -3.460  0.8874E+00  0.1062E+01
  -3.450  0.8856E+00  0.1071E+01
  -3.440  0.8839E+00  0.1080E+01
  -3.430  0.8823E+00  0.1088E+01
  -3.420  0.8806E+00  0.1097E+01
  -3.410  0.8788E+00  0.1106E+01
  -3.400  0.8769E+00  0.1115E+01
  -3.390  0.8749E+00  0.1124E+01
  -3.380  0.8727E+00  0.1132E+01
  -3.370  0.8705E+00  0.1141E+01
  -3.360  0.8682E+00  0.1150E+01
  -3.350  0.8599E+00  0.1158E+01
  -3.340  0.8527E+00  0.1167E+01
  -3.330  0.8488E+00  0.1175E+01
  -3.320  0.8477E+00  0.1184E+01
  -3.310  0.8466E+00  0.1192E+01
  -3.300  0.8451E+00  0.1201E+01
  -3.290  0.8432E+00  0.1209E+01
  -3.280  0.8409E+00  0.1218E+01
  -3.270  0.8381E+00  0.1226E+01
  -3.260  0.8351E+00  0.1235E+01
  -3.250  0.8340E+00  0.1243E+01
  -3.240  0.8353E+00  0.1251E+01
  -3.230  0.8389E+00  0.1260E+01
  -3.220  0.8448E+00  0.1268E+01
  -3.210  0.8415E+00  0.1276E+01
  -3.200  0.8354E+00  0.1285E+01
  -3.190  0.8282E+00  0.1293E+01
  -3.180  0.8212E+00  0.1301E+01
  -3.170  0.8146E+00  0.1310E+01
  -3.160  0.8082E+00  0.1318E+01
  -3.150  0.8022E+00  0.1326E+01
  -3.140  0.7965E+00  0.1334E+01
  -3.130  0.7911E+00  0.1342E+01
  -3.120  0.7860E+00  0.1350E+01
  -3.110  0.7812E+00  0.1357E+01
  -3.100  0.7768E+00  0.1365E+01
  -3.090  0.7727E+00  0.1373E+01
  -3.080  0.7677E+00  0.1381E+01
  -3.070  0.7627E+00  0.1388E+01
  -3.060  0.7577E+00  0.1396E+01
  -3.050  0.7529E+00  0.1403E+01
  -3.040  0.7483E+00  0.1411E+01
  -3.030  0.7438E+00  0.1418E+01
  -3.020  0.7394E+00  0.1426E+01
  -3.010  0.7351E+00  0.1433E+01
  -3.000  0.7310E+00  0.1441E+01
  -2.990  0.7270E+00  0.1448E+01
  -2.980  0.7231E+00  0.1455E+01
  -2.970  0.7194E+00  0.1462E+01
  -2.960  0.7159E+00  0.1469E+01
  -2.950  0.7126E+00  0.1477E+01
  -2.940  0.7094E+00  0.1484E+01
  -2.930  0.7063E+00  0.1491E+01
  -2.920  0.7035E+00  0.1498E+01
  -2.910  0.7007E+00  0.1505E+01
  -2.900  0.6982E+00  0.1512E+01
  -2.890  0.6958E+00  0.1519E+01
  -2.880  0.6933E+00  0.1526E+01
  -2.870  0.6907E+00  0.1533E+01
  -2.860  0.6881E+00  0.1540E+01
  -2.850  0.6854E+00  0.1546E+01
  -2.840  0.6827E+00  0.1553E+01
  -2.830  0.6799E+00  0.1560E+01
  -2.820  0.6771E+00  0.1567E+01
  -2.810  0.6742E+00  0.1574E+01
  -2.800  0.6713E+00  0.1580E+01
  -2.790  0.6683E+00  0.1587E+01
  -2.780  0.6653E+00  0.1594E+01
  -2.770  0.6622E+00  0.1600E+01
  -2.760  0.6591E+00  0.1607E+01
  -2.750  0.6559E+00  0.1614E+01
  -2.740  0.6530E+00  0.1620E+01
  -2.730  0.6533E+00  0.1627E+01
  -2.720  0.6573E+00  0.1633E+01
  -2.710  0.6650E+00  0.1640E+01
  -2.700  0.6763E+00  0.1646E+01
  -2.690  0.6912E+00  0.1653E+01
  -2.680  0.7055E+00  0.1660E+01
  -2.670  0.6298E+00  0.1667E+01
  -2.660  0.6274E+00  0.1673E+01
  -2.650  0.6249E+00  0.1679E+01
  -2.640  0.6224E+00  0.1686E+01
  -2.630  0.6199E+00  0.1692E+01
  -2.620  0.6173E+00  0.1698E+01
  -2.610  0.6147E+00  0.1704E+01
  -2.600  0.6121E+00  0.1710E+01
  -2.590  0.6095E+00  0.1716E+01
  -2.580  0.6068E+00  0.1722E+01
  -2.570  0.6041E+00  0.1729E+01
  -2.560  0.6014E+00  0.1735E+01
  -2.550  0.5987E+00  0.1741E+01
  -2.540  0.5959E+00  0.1747E+01
  -2.530  0.5931E+00  0.1752E+01
  -2.520  0.5903E+00  0.1758E+01
  -2.510  0.5875E+00  0.1764E+01
  -2.500  0.5846E+00  0.1770E+01
  -2.490  0.5817E+00  0.1776E+01
  -2.480  0.5788E+00  0.1782E+01
  -2.470  0.5758E+00  0.1788E+01
  -2.460  0.5728E+00  0.1793E+01
  -2.450  0.5698E+00  0.1799E+01
  -2.440  0.5668E+00  0.1805E+01
  -2.430  0.5642E+00  0.1810E+01
  -2.420  0.5629E+00  0.1816E+01
  -2.410  0.5620E+00  0.1822E+01
  -2.400  0.5607E+00  0.1827E+01
  -2.390  0.5588E+00  0.1833E+01
  -2.380  0.5563E+00  0.1838E+01
  -2.370  0.5535E+00  0.1844E+01
  -2.360  0.5505E+00  0.1849E+01
  -2.350  0.5472E+00  0.1855E+01
  -2.340  0.5435E+00  0.1860E+01
  -2.330  0.5396E+00  0.1866E+01
  -2.320  0.5355E+00  0.1871E+01
  -2.310  0.5310E+00  0.1877E+01
  -2.300  0.5247E+00  0.1882E+01
  -2.290  0.5172E+00  0.1887E+01
  -2.280  0.5087E+00  0.1892E+01
  -2.270  0.4992E+00  0.1897E+01
  -2.260  0.4888E+00  0.1902E+01
  -2.250  0.4773E+00  0.1907E+01
  -2.240  0.4648E+00  0.1912E+01
  -2.230  0.4514E+00  0.1916E+01
  -2.220  0.4369E+00  0.1921E+01
  -2.210  0.4215E+00  0.1925E+01
  -2.200  0.4032E+00  0.1929E+01
  -2.190  0.3849E+00  0.1933E+01
  -2.180  0.3673E+00  0.1937E+01
  -2.170  0.3505E+00  0.1940E+01
  -2.160  0.3357E+00  0.1944E+01
  -2.150  0.3232E+00  0.1947E+01
  -2.140  0.3109E+00  0.1950E+01
  -2.130  0.2988E+00  0.1953E+01
  -2.120  0.2869E+00  0.1956E+01
  -2.110  0.2752E+00  0.1959E+01
  -2.100  0.2637E+00  0.1962E+01
  -2.090  0.2523E+00  0.1964E+01
  -2.080  0.2412E+00  0.1967E+01
  -2.070  0.2303E+00  0.1969E+01
  -2.060  0.2196E+00  0.1971E+01
  -2.050  0.2091E+00  0.1974E+01
  -2.040  0.1988E+00  0.1976E+01
  -2.030  0.1887E+00  0.1978E+01
  -2.020  0.1788E+00  0.1979E+01
  -2.010  0.1691E+00  0.1981E+01
  -2.000  0.1596E+00  0.1983E+01
  -1.990  0.1503E+00  0.1984E+01
  -1.980  0.1412E+00  0.1986E+01
  -1.970  0.1322E+00  0.1987E+01
  -1.960  0.1235E+00  0.1988E+01
  -1.950  0.1150E+00  0.1990E+01
  -1.940  0.1068E+00  0.1991E+01
  -1.930  0.9891E-01  0.1992E+01
  -1.920  0.9127E-01  0.1993E+01
  -1.910  0.8392E-01  0.1994E+01
  -1.900  0.7685E-01  0.1994E+01
  -1.890  0.7007E-01  0.1995E+01
  -1.880  0.6358E-01  0.1996E+01
  -1.870  0.5736E-01  0.1996E+01
  -1.860  0.5144E-01  0.1997E+01
  -1.850  0.4580E-01  0.1997E+01
  -1.840  0.4044E-01  0.1998E+01
  -1.830  0.3538E-01  0.1998E+01
  -1.820  0.3059E-01  0.1999E+01
  -1.810  0.2610E-01  0.1999E+01
  -1.800  0.2207E-01  0.1999E+01
  -1.790  0.1859E-01  0.1999E+01
  -1.780  0.1566E-01  0.1999E+01
  -1.770  0.1391E-01  0.2000E+01
  -1.760  0.1288E-01  0.2000E+01
  -1.750  0.1222E-01  0.2000E+01
  -1.740  0.1194E-01  0.2000E+01
  -1.730  0.1204E-01  0.2000E+01
  -1.720  0.1250E-01  0.2000E+01
  -1.710  0.1334E-01  0.2000E+01
  -1.700  0.1456E-01  0.2000E+01
  -1.690  0.1627E-01  0.2001E+01
  -1.680  0.1857E-01  0.2001E+01
  -1.670  0.2146E-01  0.2001E+01
  -1.660  0.2495E-01  0.2001E+01
  -1.650  0.2886E-01  0.2001E+01
  -1.640  0.3306E-01  0.2002E+01
  -1.630  0.3755E-01  0.2002E+01
  -1.620  0.4234E-01  0.2003E+01
  -1.610  0.4741E-01  0.2003E+01
  -1.600  0.5278E-01  0.2004E+01
  -1.590  0.5843E-01  0.2004E+01
  -1.580  0.6438E-01  0.2005E+01
  -1.570  0.7061E-01  0.2005E+01
  -1.560  0.7714E-01  0.2006E+01
  -1.550  0.8395E-01  0.2007E+01
  -1.540  0.9093E-01  0.2008E+01
  -1.530  0.9807E-01  0.2009E+01
  -1.520  0.1054E+00  0.2010E+01
  -1.510  0.1128E+00  0.2011E+01
  -1.500  0.1204E+00  0.2012E+01
  -1.490  0.1282E+00  0.2013E+01
  -1.480  0.1361E+00  0.2015E+01
  -1.470  0.1442E+00  0.2016E+01
  -1.460  0.1524E+00  0.2017E+01
  -1.450  0.1608E+00  0.2019E+01
  -1.440  0.1693E+00  0.2021E+01
  -1.430  0.1780E+00  0.2022E+01
  -1.420  0.1868E+00  0.2024E+01
  -1.410  0.1958E+00  0.2026E+01
  -1.400  0.2050E+00  0.2028E+01
  -1.390  0.2143E+00  0.2030E+01
  -1.380  0.2237E+00  0.2032E+01
  -1.370  0.2333E+00  0.2035E+01
  -1.360  0.2431E+00  0.2037E+01
  -1.350  0.2530E+00  0.2040E+01
  -1.340  0.2631E+00  0.2042E+01
  -1.330  0.2733E+00  0.2045E+01
  -1.320  0.2837E+00  0.2048E+01
  -1.310  0.2942E+00  0.2050E+01
  -1.300  0.3049E+00  0.2053E+01
  -1.290  0.3158E+00  0.2057E+01
  -1.280  0.3268E+00  0.2060E+01
  -1.270  0.3379E+00  0.2063E+01
  -1.260  0.3504E+00  0.2067E+01
  -1.250  0.3671E+00  0.2070E+01
  -1.240  0.3837E+00  0.2074E+01
  -1.230  0.4002E+00  0.2078E+01
  -1.220  0.4166E+00  0.2082E+01
  -1.210  0.4329E+00  0.2086E+01
  -1.200  0.4490E+00  0.2091E+01
  -1.190  0.4650E+00  0.2095E+01
  -1.180  0.4809E+00  0.2100E+01
  -1.170  0.4967E+00  0.2105E+01
  -1.160  0.5116E+00  0.2110E+01
  -1.150  0.5218E+00  0.2115E+01
  -1.140  0.5307E+00  0.2120E+01
  -1.130  0.5394E+00  0.2126E+01
  -1.120  0.5477E+00  0.2131E+01
  -1.110  0.5558E+00  0.2137E+01
  -1.100  0.5636E+00  0.2142E+01
  -1.090  0.5711E+00  0.2148E+01
  -1.080  0.5783E+00  0.2154E+01
  -1.070  0.5853E+00  0.2159E+01
  -1.060  0.5914E+00  0.2165E+01
  -1.050  0.5972E+00  0.2171E+01
  -1.040  0.6031E+00  0.2177E+01
  -1.030  0.6094E+00  0.2183E+01
  -1.020  0.6158E+00  0.2189E+01
  -1.010  0.6225E+00  0.2196E+01
  -1.000  0.6294E+00  0.2202E+01
  -0.990  0.6366E+00  0.2208E+01
  -0.980  0.6440E+00  0.2215E+01
  -0.970  0.6516E+00  0.2221E+01
  -0.960  0.6595E+00  0.2228E+01
  -0.950  0.6676E+00  0.2234E+01
  -0.940  0.6759E+00  0.2241E+01
  -0.930  0.6841E+00  0.2248E+01
  -0.920  0.6925E+00  0.2255E+01
  -0.910  0.7034E+00  0.2262E+01
  -0.900  0.7170E+00  0.2269E+01
  -0.890  0.7334E+00  0.2276E+01
  -0.880  0.7526E+00  0.2283E+01
  -0.870  0.7744E+00  0.2291E+01
  -0.860  0.7991E+00  0.2299E+01
  -0.850  0.8265E+00  0.2307E+01
  -0.840  0.8638E+00  0.2315E+01
  -0.830  0.9264E+00  0.2324E+01
  -0.820  0.1057E+01  0.2335E+01
  -0.810  0.1212E+01  0.2346E+01
  -0.800  0.1346E+01  0.2359E+01
  -0.790  0.1429E+01  0.2373E+01
  -0.780  0.1452E+01  0.2388E+01
  -0.770  0.1455E+01  0.2402E+01
  -0.760  0.1453E+01  0.2417E+01
  -0.750  0.1446E+01  0.2431E+01
  -0.740  0.1445E+01  0.2446E+01
  -0.730  0.1452E+01  0.2460E+01
  -0.720  0.1456E+01  0.2475E+01
  -0.710  0.1464E+01  0.2489E+01
  -0.700  0.1467E+01  0.2504E+01
  -0.690  0.1464E+01  0.2519E+01
  -0.680  0.1456E+01  0.2533E+01
  -0.670  0.1442E+01  0.2548E+01
  -0.660  0.1422E+01  0.2562E+01
  -0.650  0.1402E+01  0.2576E+01
  -0.640  0.1383E+01  0.2590E+01
  -0.630  0.1362E+01  0.2604E+01
  -0.620  0.1341E+01  0.2617E+01
  -0.610  0.1318E+01  0.2631E+01
  -0.600  0.1294E+01  0.2644E+01
  -0.590  0.1269E+01  0.2656E+01
  -0.580  0.1243E+01  0.2669E+01
  -0.570  0.1216E+01  0.2681E+01
  -0.560  0.1189E+01  0.2693E+01
  -0.550  0.1162E+01  0.2705E+01
  -0.540  0.1135E+01  0.2717E+01
  -0.530  0.1105E+01  0.2728E+01
  -0.520  0.1076E+01  0.2739E+01
  -0.510  0.1049E+01  0.2749E+01
  -0.500  0.1023E+01  0.2760E+01
  -0.490  0.9991E+00  0.2770E+01
  -0.480  0.9761E+00  0.2780E+01
  -0.470  0.9545E+00  0.2789E+01
  -0.460  0.9343E+00  0.2799E+01
  -0.450  0.9155E+00  0.2808E+01
  -0.440  0.8980E+00  0.2817E+01
  -0.430  0.8821E+00  0.2826E+01
  -0.420  0.8673E+00  0.2835E+01
  -0.410  0.8534E+00  0.2843E+01
  -0.400  0.8403E+00  0.2852E+01
  -0.390  0.8280E+00  0.2860E+01
  -0.380  0.8164E+00  0.2868E+01
  -0.370  0.8053E+00  0.2876E+01
  -0.360  0.7948E+00  0.2884E+01
  -0.350  0.7848E+00  0.2892E+01
  -0.340  0.7754E+00  0.2900E+01
  -0.330  0.7661E+00  0.2908E+01
  -0.320  0.7570E+00  0.2915E+01
  -0.310  0.7483E+00  0.2923E+01
  -0.300  0.7402E+00  0.2930E+01
  -0.290  0.7323E+00  0.2938E+01
  -0.280  0.7245E+00  0.2945E+01
  -0.270  0.7168E+00  0.2952E+01
  -0.260  0.7093E+00  0.2959E+01
  -0.250  0.7018E+00  0.2966E+01
  -0.240  0.6945E+00  0.2973E+01
  -0.230  0.6872E+00  0.2980E+01
  -0.220  0.6801E+00  0.2987E+01
  -0.210  0.6731E+00  0.2994E+01
  -0.200  0.6662E+00  0.3001E+01
  -0.190  0.6595E+00  0.3007E+01
  -0.180  0.6528E+00  0.3014E+01
  -0.170  0.6463E+00  0.3020E+01
  -0.160  0.6400E+00  0.3027E+01
  -0.150  0.6338E+00  0.3033E+01
  -0.140  0.6277E+00  0.3039E+01
  -0.130  0.6217E+00  0.3046E+01
  -0.120  0.6158E+00  0.3052E+01
  -0.110  0.6101E+00  0.3058E+01
  -0.100  0.6045E+00  0.3064E+01
  -0.090  0.5991E+00  0.3070E+01
  -0.080  0.5938E+00  0.3076E+01
  -0.070  0.5886E+00  0.3082E+01
  -0.060  0.5835E+00  0.3088E+01
  -0.050  0.5780E+00  0.3094E+01
  -0.040  0.5731E+00  0.3099E+01
  -0.030  0.5689E+00  0.3105E+01
  -0.020  0.5648E+00  0.3111E+01
  -0.010  0.5608E+00  0.3116E+01
  -0.000  0.5568E+00  0.3122E+01
   0.010  0.5529E+00  0.3128E+01
   0.020  0.5490E+00  0.3133E+01
   0.030  0.5451E+00  0.3139E+01
   0.040  0.5413E+00  0.3144E+01
   0.050  0.5375E+00  0.3149E+01
   0.060  0.5337E+00  0.3155E+01
   0.070  0.5300E+00  0.3160E+01
   0.080  0.5262E+00  0.3165E+01
   0.090  0.5226E+00  0.3171E+01
   0.100  0.5189E+00  0.3176E+01
   0.110  0.5153E+00  0.3181E+01
   0.120  0.5117E+00  0.3186E+01
   0.130  0.5081E+00  0.3191E+01
   0.140  0.5046E+00  0.3196E+01
   0.150  0.5011E+00  0.3201E+01
   0.160  0.4976E+00  0.3206E+01
   0.170  0.4942E+00  0.3211E+01
   0.180  0.4908E+00  0.3216E+01
   0.190  0.4874E+00  0.3221E+01
   0.200  0.4840E+00  0.3226E+01
   0.210  0.4807E+00  0.3231E+01
   0.220  0.4774E+00  0.3235E+01
   0.230  0.4741E+00  0.3240E+01
   0.240  0.4709E+00  0.3245E+01
   0.250  0.4677E+00  0.3250E+01
   0.260  0.4645E+00  0.3254E+01
   0.270  0.4613E+00  0.3259E+01
   0.280  0.4582E+00  0.3264E+01
   0.290  0.4551E+00  0.3268E+01
   0.300  0.4521E+00  0.3273E+01
   0.310  0.4502E+00  0.3277E+01
   0.320  0.4488E+00  0.3282E+01
   0.330  0.4463E+00  0.3286E+01
   0.340  0.4437E+00  0.3291E+01
   0.350  0.4412E+00  0.3295E+01
   0.360  0.4386E+00  0.3299E+01
   0.370  0.4360E+00  0.3304E+01
   0.380  0.4334E+00  0.3308E+01
   0.390  0.4308E+00  0.3312E+01
   0.400  0.4282E+00  0.3317E+01
   0.410  0.4255E+00  0.3321E+01
   0.420  0.4229E+00  0.3325E+01
   0.430  0.4202E+00  0.3329E+01
   0.440  0.4175E+00  0.3334E+01
   0.450  0.4148E+00  0.3338E+01
   0.460  0.4121E+00  0.3342E+01
   0.470  0.4094E+00  0.3346E+01
   0.480  0.4067E+00  0.3350E+01
   0.490  0.4040E+00  0.3354E+01
   0.500  0.4013E+00  0.3358E+01
   0.510  0.3986E+00  0.3362E+01
   0.520  0.3960E+00  0.3366E+01
   0.530  0.3934E+00  0.3370E+01
   0.540  0.3908E+00  0.3374E+01
   0.550  0.3883E+00  0.3378E+01
   0.560  0.3858E+00  0.3382E+01
   0.570  0.3833E+00  0.3386E+01
   0.580  0.3808E+00  0.3389E+01
   0.590  0.3784E+00  0.3393E+01
   0.600  0.3760E+00  0.3397E+01
   0.610  0.3736E+00  0.3401E+01
   0.620  0.3713E+00  0.3405E+01
   0.630  0.3689E+00  0.3408E+01
   0.640  0.3666E+00  0.3412E+01
   0.650  0.3644E+00  0.3416E+01
   0.660  0.3621E+00  0.3419E+01
   0.670  0.3599E+00  0.3423E+01
   0.680  0.3577E+00  0.3426E+01
   0.690  0.3556E+00  0.3430E+01
   0.700  0.3535E+00  0.3434E+01
   0.710  0.3514E+00  0.3437E+01
   0.720  0.3493E+00  0.3441E+01
   0.730  0.3472E+00  0.3444E+01
   0.740  0.3452E+00  0.3447E+01
   0.750  0.3431E+00  0.3451E+01
   0.760  0.3411E+00  0.3454E+01
   0.770  0.3391E+00  0.3458E+01
   0.780  0.3370E+00  0.3461E+01
   0.790  0.3350E+00  0.3464E+01
   0.800  0.3330E+00  0.3468E+01
   0.810  0.3311E+00  0.3471E+01
   0.820  0.3291E+00  0.3474E+01
   0.830  0.3272E+00  0.3478E+01
   0.840  0.3253E+00  0.3481E+01
   0.850  0.3235E+00  0.3484E+01
   0.860  0.3216E+00  0.3487E+01
   0.870  0.3198E+00  0.3491E+01
   0.880  0.3180E+00  0.3494E+01
   0.890  0.3162E+00  0.3497E+01
   0.900  0.3145E+00  0.3500E+01
   0.910  0.3128E+00  0.3503E+01
   0.920  0.3111E+00  0.3506E+01
   0.930  0.3094E+00  0.3510E+01
   0.940  0.3077E+00  0.3513E+01
   0.950  0.3061E+00  0.3516E+01
   0.960  0.3045E+00  0.3519E+01
   0.970  0.3029E+00  0.3522E+01
   0.980  0.3013E+00  0.3525E+01
   0.990  0.2998E+00  0.3528E+01
   1.000  0.2985E+00  0.3531E+01
   1.010  0.2971E+00  0.3534E+01
   1.020  0.2957E+00  0.3537E+01
   1.030  0.2943E+00  0.3540E+01
   1.040  0.2929E+00  0.3543E+01
   1.050  0.2915E+00  0.3546E+01
   1.060  0.2901E+00  0.3548E+01
   1.070  0.2887E+00  0.3551E+01
   1.080  0.2873E+00  0.3554E+01
   1.090  0.2859E+00  0.3557E+01
   1.100  0.2845E+00  0.3560E+01
   1.110  0.2832E+00  0.3563E+01
   1.120  0.2822E+00  0.3566E+01
   1.130  0.2811E+00  0.3568E+01
   1.140  0.2800E+00  0.3571E+01
   1.150  0.2788E+00  0.3574E+01
   1.160  0.2776E+00  0.3577E+01
   1.170  0.2764E+00  0.3580E+01
   1.180  0.2751E+00  0.3582E+01
   1.190  0.2738E+00  0.3585E+01
   1.200  0.2725E+00  0.3588E+01
   1.210  0.2712E+00  0.3591E+01
   1.220  0.2698E+00  0.3593E+01
   1.230  0.2683E+00  0.3596E+01
   1.240  0.2669E+00  0.3599E+01
   1.250  0.2653E+00  0.3601E+01
   1.260  0.2638E+00  0.3604E+01
   1.270  0.2621E+00  0.3607E+01
   1.280  0.2603E+00  0.3609E+01
   1.290  0.2586E+00  0.3612E+01
   1.300  0.2569E+00  0.3614E+01
   1.310  0.2552E+00  0.3617E+01
   1.320  0.2535E+00  0.3619E+01
   1.330  0.2518E+00  0.3622E+01
   1.340  0.2501E+00  0.3624E+01
   1.350  0.2485E+00  0.3627E+01
   1.360  0.2469E+00  0.3629E+01
   1.370  0.2452E+00  0.3632E+01
   1.380  0.2437E+00  0.3634E+01
   1.390  0.2421E+00  0.3637E+01
   1.400  0.2405E+00  0.3639E+01
   1.410  0.2389E+00  0.3642E+01
   1.420  0.2374E+00  0.3644E+01
   1.430  0.2359E+00  0.3646E+01
   1.440  0.2344E+00  0.3649E+01
   1.450  0.2329E+00  0.3651E+01
   1.460  0.2314E+00  0.3653E+01
   1.470  0.2300E+00  0.3656E+01
   1.480  0.2285E+00  0.3658E+01
   1.490  0.2271E+00  0.3660E+01
   1.500  0.2257E+00  0.3662E+01
   1.510  0.2240E+00  0.3665E+01
   1.520  0.2226E+00  0.3667E+01
   1.530  0.2215E+00  0.3669E+01
   1.540  0.2204E+00  0.3671E+01
   1.550  0.2192E+00  0.3674E+01
   1.560  0.2181E+00  0.3676E+01
   1.570  0.2170E+00  0.3678E+01
   1.580  0.2159E+00  0.3680E+01
   1.590  0.2149E+00  0.3682E+01
   1.600  0.2138E+00  0.3684E+01
   1.610  0.2127E+00  0.3687E+01
   1.620  0.2116E+00  0.3689E+01
   1.630  0.2105E+00  0.3691E+01
   1.640  0.2097E+00  0.3693E+01
   1.650  0.2103E+00  0.3695E+01
   1.660  0.2127E+00  0.3697E+01
   1.670  0.2167E+00  0.3699E+01
   1.680  0.2224E+00  0.3701E+01
   1.690  0.2297E+00  0.3704E+01
   1.700  0.2388E+00  0.3706E+01
   1.710  0.2495E+00  0.3708E+01
   1.720  0.2619E+00  0.3711E+01
   1.730  0.2760E+00  0.3714E+01
   1.740  0.2917E+00  0.3717E+01
   1.750  0.3092E+00  0.3720E+01
   1.760  0.3283E+00  0.3723E+01
   1.770  0.3491E+00  0.3726E+01
   1.780  0.3715E+00  0.3730E+01
   1.790  0.3957E+00  0.3734E+01
   1.800  0.5771E+00  0.3738E+01
   1.810  0.6615E+00  0.3744E+01
   1.820  0.7263E+00  0.3751E+01
   1.830  0.7723E+00  0.3759E+01
   1.840  0.8271E+00  0.3767E+01
   1.850  0.8829E+00  0.3775E+01
   1.860  0.9357E+00  0.3784E+01
   1.870  0.9854E+00  0.3794E+01
   1.880  0.1032E+01  0.3804E+01
   1.890  0.1073E+01  0.3815E+01
   1.900  0.1108E+01  0.3826E+01
   1.910  0.1142E+01  0.3837E+01
   1.920  0.1175E+01  0.3848E+01
   1.930  0.1207E+01  0.3860E+01
   1.940  0.1238E+01  0.3873E+01
   1.950  0.1268E+01  0.3885E+01
   1.960  0.1287E+01  0.3898E+01
   1.970  0.1296E+01  0.3911E+01
   1.980  0.1303E+01  0.3924E+01
   1.990  0.1308E+01  0.3937E+01
   2.000  0.1311E+01  0.3950E+01
   2.010  0.1311E+01  0.3963E+01
   2.020  0.1304E+01  0.3976E+01
   2.030  0.1296E+01  0.3989E+01
   2.040  0.1288E+01  0.4002E+01
   2.050  0.1279E+01  0.4015E+01
   2.060  0.1269E+01  0.4028E+01
   2.070  0.1258E+01  0.4040E+01
   2.080  0.1246E+01  0.4053E+01
   2.090  0.1234E+01  0.4065E+01
   2.100  0.1223E+01  0.4078E+01
   2.110  0.1213E+01  0.4090E+01
   2.120  0.1206E+01  0.4102E+01
   2.130  0.1200E+01  0.4114E+01
   2.140  0.1195E+01  0.4126E+01
   2.150  0.1190E+01  0.4138E+01
   2.160  0.1186E+01  0.4150E+01
   2.170  0.1181E+01  0.4161E+01
   2.180  0.1178E+01  0.4173E+01
   2.190  0.1174E+01  0.4185E+01
   2.200  0.1171E+01  0.4197E+01
   2.210  0.1168E+01  0.4208E+01
   2.220  0.1165E+01  0.4220E+01
   2.230  0.1163E+01  0.4232E+01
   2.240  0.1160E+01  0.4243E+01
   2.250  0.1158E+01  0.4255E+01
   2.260  0.1157E+01  0.4266E+01
   2.270  0.1174E+01  0.4278E+01
   2.280  0.1180E+01  0.4290E+01
   2.290  0.1162E+01  0.4302E+01
   2.300  0.1146E+01  0.4313E+01
   2.310  0.1131E+01  0.4325E+01
   2.320  0.1118E+01  0.4336E+01
   2.330  0.1107E+01  0.4347E+01
   2.340  0.1097E+01  0.4358E+01
   2.350  0.1089E+01  0.4369E+01
   2.360  0.1083E+01  0.4380E+01
   2.370  0.1078E+01  0.4391E+01
   2.380  0.1075E+01  0.4401E+01
   2.390  0.1072E+01  0.4412E+01
   2.400  0.1070E+01  0.4423E+01
   2.410  0.1068E+01  0.4433E+01
   2.420  0.1066E+01  0.4444E+01
   2.430  0.1065E+01  0.4455E+01
   2.440  0.1067E+01  0.4465E+01
   2.450  0.1072E+01  0.4476E+01
   2.460  0.1075E+01  0.4487E+01
   2.470  0.1072E+01  0.4498E+01
   2.480  0.1064E+01  0.4508E+01
   2.490  0.1050E+01  0.4519E+01
   2.500  0.1039E+01  0.4529E+01
   2.510  0.1037E+01  0.4540E+01
   2.520  0.1036E+01  0.4550E+01
   2.530  0.1037E+01  0.4560E+01
   2.540  0.1039E+01  0.4571E+01
   2.550  0.1042E+01  0.4581E+01
   2.560  0.1044E+01  0.4592E+01
   2.570  0.1046E+01  0.4602E+01
   2.580  0.1048E+01  0.4613E+01
   2.590  0.1049E+01  0.4623E+01
   2.600  0.1050E+01  0.4634E+01
   2.610  0.1052E+01  0.4644E+01
   2.620  0.1054E+01  0.4655E+01
   2.630  0.1056E+01  0.4665E+01
   2.640  0.1058E+01  0.4676E+01
   2.650  0.1061E+01  0.4686E+01
   2.660  0.1065E+01  0.4697E+01
   2.670  0.1068E+01  0.4708E+01
   2.680  0.1072E+01  0.4718E+01
   2.690  0.1076E+01  0.4729E+01
   2.700  0.1081E+01  0.4740E+01
   2.710  0.1086E+01  0.4751E+01
   2.720  0.1091E+01  0.4762E+01
   2.730  0.1096E+01  0.4772E+01
   2.740  0.1100E+01  0.4783E+01
   2.750  0.1106E+01  0.4794E+01
   2.760  0.1111E+01  0.4806E+01
   2.770  0.1117E+01  0.4817E+01
   2.780  0.1123E+01  0.4828E+01
   2.790  0.1130E+01  0.4839E+01
   2.800  0.1136E+01  0.4850E+01
   2.810  0.1143E+01  0.4862E+01
   2.820  0.1149E+01  0.4873E+01
   2.830  0.1179E+01  0.4885E+01
   2.840  0.1371E+01  0.4898E+01
   2.850  0.1246E+01  0.4911E+01
   2.860  0.1245E+01  0.4923E+01
   2.870  0.1242E+01  0.4936E+01
   2.880  0.1238E+01  0.4948E+01
   2.890  0.1245E+01  0.4961E+01
   2.900  0.1252E+01  0.4973E+01
   2.910  0.1259E+01  0.4986E+01
   2.920  0.1265E+01  0.4998E+01
   2.930  0.1273E+01  0.5011E+01
   2.940  0.1282E+01  0.5024E+01
   2.950  0.1292E+01  0.5037E+01
   2.960  0.1303E+01  0.5050E+01
   2.970  0.1313E+01  0.5063E+01
   2.980  0.1324E+01  0.5076E+01
   2.990  0.1334E+01  0.5089E+01
   3.000  0.1345E+01  0.5103E+01
   3.010  0.1356E+01  0.5116E+01
   3.020  0.1368E+01  0.5130E+01
   3.030  0.1380E+01  0.5143E+01
   3.040  0.1396E+01  0.5157E+01
   3.050  0.1414E+01  0.5171E+01
   3.060  0.1434E+01  0.5186E+01
   3.070  0.1457E+01  0.5200E+01
   3.080  0.1476E+01  0.5215E+01
   3.090  0.1495E+01  0.5230E+01
   3.100  0.1530E+01  0.5245E+01
   3.110  0.1566E+01  0.5260E+01
   3.120  0.1598E+01  0.5276E+01
   3.130  0.1618E+01  0.5292E+01
   3.140  0.1621E+01  0.5308E+01
   3.150  0.1612E+01  0.5324E+01
   3.160  0.1606E+01  0.5341E+01
   3.170  0.1612E+01  0.5357E+01
   3.180  0.1616E+01  0.5373E+01
   3.190  0.1618E+01  0.5389E+01
   3.200  0.1618E+01  0.5405E+01
   3.210  0.1616E+01  0.5421E+01
   3.220  0.1588E+01  0.5437E+01
   3.230  0.1566E+01  0.5453E+01
   3.240  0.1554E+01  0.5469E+01
   3.250  0.1550E+01  0.5484E+01
   3.260  0.1547E+01  0.5500E+01
   3.270  0.1546E+01  0.5515E+01
   3.280  0.1545E+01  0.5531E+01
   3.290  0.1544E+01  0.5546E+01
   3.300  0.1545E+01  0.5561E+01
   3.310  0.1546E+01  0.5577E+01
   3.320  0.1548E+01  0.5592E+01
   3.330  0.1551E+01  0.5608E+01
   3.340  0.1554E+01  0.5623E+01
   3.350  0.1556E+01  0.5639E+01
   3.360  0.1558E+01  0.5655E+01
   3.370  0.1618E+01  0.5670E+01
   3.380  0.1608E+01  0.5687E+01
   3.390  0.1598E+01  0.5703E+01
   3.400  0.1588E+01  0.5719E+01
   3.410  0.1579E+01  0.5734E+01
   3.420  0.1574E+01  0.5750E+01
   3.430  0.1569E+01  0.5766E+01
   3.440  0.1561E+01  0.5782E+01
   3.450  0.1552E+01  0.5797E+01
   3.460  0.1545E+01  0.5813E+01
   3.470  0.1538E+01  0.5828E+01
   3.480  0.1531E+01  0.5843E+01
   3.490  0.1525E+01  0.5859E+01
   3.500  0.1519E+01  0.5874E+01
   3.510  0.1514E+01  0.5889E+01
   3.520  0.1509E+01  0.5904E+01
   3.530  0.1505E+01  0.5919E+01
   3.540  0.1490E+01  0.5934E+01
   3.550  0.1486E+01  0.5949E+01
   3.560  0.1483E+01  0.5964E+01
   3.570  0.1480E+01  0.5979E+01
   3.580  0.1481E+01  0.5993E+01
   3.590  0.1484E+01  0.6008E+01
   3.600  0.1489E+01  0.6023E+01
   3.610  0.1496E+01  0.6038E+01
   3.620  0.1505E+01  0.6053E+01
   3.630  0.1515E+01  0.6068E+01
   3.640  0.1508E+01  0.6083E+01
   3.650  0.1478E+01  0.6098E+01
   3.660  0.1460E+01  0.6113E+01
   3.670  0.1455E+01  0.6127E+01
   3.680  0.1450E+01  0.6142E+01
   3.690  0.1445E+01  0.6156E+01
   3.700  0.1441E+01  0.6171E+01
   3.710  0.1436E+01  0.6185E+01
   3.720  0.1431E+01  0.6200E+01
   3.730  0.1426E+01  0.6214E+01
   3.740  0.1421E+01  0.6228E+01
   3.750  0.1417E+01  0.6242E+01
   3.760  0.1413E+01  0.6256E+01
   3.770  0.1409E+01  0.6271E+01
   3.780  0.1407E+01  0.6285E+01
   3.790  0.1406E+01  0.6299E+01
   3.800  0.1406E+01  0.6313E+01
   3.810  0.1408E+01  0.6327E+01
   3.820  0.1411E+01  0.6341E+01
   3.830  0.1416E+01  0.6355E+01
   3.840  0.1438E+01  0.6369E+01
   3.850  0.1427E+01  0.6384E+01
   3.860  0.1420E+01  0.6398E+01
   3.870  0.1413E+01  0.6412E+01
   3.880  0.1407E+01  0.6426E+01
   3.890  0.1402E+01  0.6440E+01
   3.900  0.1398E+01  0.6454E+01
   3.910  0.1394E+01  0.6468E+01
   3.920  0.1390E+01  0.6482E+01
   3.930  0.1388E+01  0.6496E+01
   3.940  0.1386E+01  0.6510E+01
   3.950  0.1385E+01  0.6524E+01
   3.960  0.1383E+01  0.6538E+01
   3.970  0.1383E+01  0.6551E+01
   3.980  0.1382E+01  0.6565E+01
   3.990  0.1382E+01  0.6579E+01
   4.000  0.1380E+01  0.6593E+01
   4.010  0.1378E+01  0.6607E+01
   4.020  0.1375E+01  0.6620E+01
   4.030  0.1372E+01  0.6634E+01
   4.040  0.1369E+01  0.6648E+01
   4.050  0.1366E+01  0.6662E+01
   4.060  0.1363E+01  0.6675E+01
   4.070  0.1360E+01  0.6689E+01
   4.080  0.1372E+01  0.6702E+01
   4.090  0.1401E+01  0.6716E+01
   4.100  0.1419E+01  0.6730E+01
   4.110  0.1426E+01  0.6745E+01
   4.120  0.1423E+01  0.6759E+01
   4.130  0.1416E+01  0.6773E+01
   4.140  0.1405E+01  0.6787E+01
   4.150  0.1389E+01  0.6801E+01
   4.160  0.1369E+01  0.6815E+01
   4.170  0.1351E+01  0.6829E+01
   4.180  0.1346E+01  0.6842E+01
   4.190  0.1341E+01  0.6855E+01
   4.200  0.1337E+01  0.6869E+01
   4.210  0.1332E+01  0.6882E+01
   4.220  0.1328E+01  0.6896E+01
   4.230  0.1324E+01  0.6909E+01
   4.240  0.1320E+01  0.6922E+01
   4.250  0.1317E+01  0.6935E+01
   4.260  0.1313E+01  0.6948E+01
   4.270  0.1310E+01  0.6961E+01
   4.280  0.1306E+01  0.6975E+01
   4.290  0.1303E+01  0.6988E+01
   4.300  0.1301E+01  0.7001E+01
   4.310  0.1298E+01  0.7014E+01
   4.320  0.1317E+01  0.7027E+01
   4.330  0.1333E+01  0.7040E+01
   4.340  0.1351E+01  0.7053E+01
   4.350  0.1361E+01  0.7067E+01
   4.360  0.1362E+01  0.7081E+01
   4.370  0.1354E+01  0.7094E+01
   4.380  0.1346E+01  0.7108E+01
   4.390  0.1336E+01  0.7121E+01
   4.400  0.1325E+01  0.7134E+01
   4.410  0.1310E+01  0.7148E+01
   4.420  0.1302E+01  0.7161E+01
   4.430  0.1295E+01  0.7174E+01
   4.440  0.1289E+01  0.7186E+01
   4.450  0.1284E+01  0.7199E+01
   4.460  0.1279E+01  0.7212E+01
   4.470  0.1273E+01  0.7225E+01
   4.480  0.1267E+01  0.7238E+01
   4.490  0.1261E+01  0.7250E+01
   4.500  0.1255E+01  0.7263E+01
   4.510  0.1249E+01  0.7275E+01
   4.520  0.1242E+01  0.7288E+01
   4.530  0.1236E+01  0.7300E+01
   4.540  0.1229E+01  0.7313E+01
   4.550  0.1230E+01  0.7325E+01
   4.560  0.1238E+01  0.7337E+01
   4.570  0.1249E+01  0.7350E+01
   4.580  0.1249E+01  0.7362E+01
   4.590  0.1245E+01  0.7375E+01
   4.600  0.1238E+01  0.7387E+01
   4.610  0.1230E+01  0.7399E+01
   4.620  0.1221E+01  0.7412E+01
   4.630  0.1210E+01  0.7424E+01
   4.640  0.1200E+01  0.7436E+01
   4.650  0.1197E+01  0.7448E+01
   4.660  0.1188E+01  0.7460E+01
   4.670  0.1168E+01  0.7471E+01
   4.680  0.1145E+01  0.7483E+01
   4.690  0.1121E+01  0.7494E+01
   4.700  0.1096E+01  0.7505E+01
   4.710  0.1069E+01  0.7516E+01
   4.720  0.1038E+01  0.7527E+01
   4.730  0.1007E+01  0.7537E+01
   4.740  0.9748E+00  0.7547E+01
   4.750  0.9435E+00  0.7557E+01
   4.760  0.9154E+00  0.7566E+01
   4.770  0.8907E+00  0.7575E+01
   4.780  0.8693E+00  0.7584E+01
   4.790  0.8512E+00  0.7592E+01
   4.800  0.8355E+00  0.7601E+01
   4.810  0.8201E+00  0.7609E+01
   4.820  0.8050E+00  0.7617E+01
   4.830  0.7901E+00  0.7625E+01
   4.840  0.7756E+00  0.7633E+01
   4.850  0.7615E+00  0.7641E+01
   4.860  0.7477E+00  0.7648E+01
   4.870  0.7343E+00  0.7656E+01
   4.880  0.7212E+00  0.7663E+01
   4.890  0.7085E+00  0.7670E+01
   4.900  0.6961E+00  0.7677E+01
   4.910  0.6840E+00  0.7684E+01
   4.920  0.6723E+00  0.7691E+01
   4.930  0.6609E+00  0.7697E+01
   4.940  0.6488E+00  0.7704E+01
   4.950  0.6256E+00  0.7710E+01
   4.960  0.6215E+00  0.7716E+01
   4.970  0.6213E+00  0.7723E+01
   4.980  0.6205E+00  0.7729E+01
   4.990  0.6191E+00  0.7735E+01
   5.000  0.6172E+00  0.7741E+01
   5.010  0.6106E+00  0.7747E+01
   5.020  0.6018E+00  0.7753E+01
   5.030  0.5931E+00  0.7759E+01
   5.040  0.5845E+00  0.7765E+01
   5.050  0.5759E+00  0.7771E+01
   5.060  0.5682E+00  0.7777E+01
   5.070  0.5634E+00  0.7782E+01
   5.080  0.5582E+00  0.7788E+01
   5.090  0.5681E+00  0.7794E+01
   5.100  0.5754E+00  0.7799E+01
   5.110  0.5745E+00  0.7805E+01
   5.120  0.5654E+00  0.7811E+01
   5.130  0.5482E+00  0.7816E+01
   5.140  0.5228E+00  0.7822E+01
   5.150  0.4957E+00  0.7827E+01
   5.160  0.4847E+00  0.7832E+01
   5.170  0.4731E+00  0.7837E+01
   5.180  0.4609E+00  0.7841E+01
   5.190  0.4478E+00  0.7846E+01
   5.200  0.4338E+00  0.7850E+01
   5.210  0.4233E+00  0.7854E+01
   5.220  0.4133E+00  0.7859E+01
   5.230  0.4064E+00  0.7863E+01
   5.240  0.4006E+00  0.7867E+01
   5.250  0.3955E+00  0.7871E+01
   5.260  0.3929E+00  0.7875E+01
   5.270  0.3902E+00  0.7879E+01
   5.280  0.3873E+00  0.7883E+01
   5.290  0.3842E+00  0.7886E+01
   5.300  0.3810E+00  0.7890E+01
   5.310  0.3776E+00  0.7894E+01
   5.320  0.3740E+00  0.7898E+01
   5.330  0.3681E+00  0.7901E+01
   5.340  0.3615E+00  0.7905E+01
   5.350  0.3549E+00  0.7909E+01
   5.360  0.3482E+00  0.7912E+01
   5.370  0.3414E+00  0.7916E+01
   5.380  0.3346E+00  0.7919E+01
   5.390  0.3278E+00  0.7922E+01
   5.400  0.3210E+00  0.7926E+01
   5.410  0.3140E+00  0.7929E+01
   5.420  0.3071E+00  0.7932E+01
   5.430  0.3001E+00  0.7935E+01
   5.440  0.2930E+00  0.7938E+01
   5.450  0.2860E+00  0.7941E+01
   5.460  0.2788E+00  0.7944E+01
   5.470  0.2717E+00  0.7946E+01
   5.480  0.2644E+00  0.7949E+01
   5.490  0.2569E+00  0.7952E+01
   5.500  0.2490E+00  0.7954E+01
   5.510  0.2404E+00  0.7957E+01
   5.520  0.2316E+00  0.7959E+01
   5.530  0.2227E+00  0.7961E+01
   5.540  0.2137E+00  0.7963E+01
   5.550  0.2045E+00  0.7966E+01
   5.560  0.1953E+00  0.7968E+01
   5.570  0.1862E+00  0.7969E+01
   5.580  0.1807E+00  0.7971E+01
   5.590  0.1753E+00  0.7973E+01
   5.600  0.1697E+00  0.7975E+01
   5.610  0.1642E+00  0.7976E+01
   5.620  0.1586E+00  0.7978E+01
   5.630  0.1529E+00  0.7980E+01
   5.640  0.1473E+00  0.7981E+01
   5.650  0.1415E+00  0.7983E+01
   5.660  0.1358E+00  0.7984E+01
   5.670  0.1300E+00  0.7985E+01
   5.680  0.1242E+00  0.7987E+01
   5.690  0.1183E+00  0.7988E+01
   5.700  0.1124E+00  0.7989E+01
   5.710  0.1065E+00  0.7990E+01
   5.720  0.1005E+00  0.7991E+01
   5.730  0.9449E-01  0.7992E+01
   5.740  0.8844E-01  0.7993E+01
   5.750  0.8235E-01  0.7994E+01
   5.760  0.7623E-01  0.7995E+01
   5.770  0.7006E-01  0.7995E+01
   5.780  0.8170E-01  0.7996E+01
   5.790  0.1221E+00  0.7997E+01
   5.800  0.5313E-01  0.7998E+01
   5.810  0.4116E-01  0.7999E+01
   5.820  0.3389E-01  0.7999E+01
   5.830  0.2733E-01  0.7999E+01
   5.840  0.2148E-01  0.7999E+01
   5.850  0.1633E-01  0.8000E+01
   5.860  0.1188E-01  0.8000E+01
   5.870  0.8140E-02  0.8000E+01
   5.880  0.5104E-02  0.8000E+01
   5.890  0.2774E-02  0.8000E+01
   5.900  0.1149E-02  0.8000E+01
   5.910  0.2286E-03  0.8000E+01
   5.920  0.0000E+00  0.8000E+01
   5.930  0.0000E+00  0.8000E+01
   5.940  0.0000E+00  0.8000E+01
   5.950  0.0000E+00  0.8000E+01
   5.960  0.0000E+00  0.8000E+01
   5.970  0.0000E+00  0.8000E+01
   5.980  0.0000E+00  0.8000E+01
   5.990  0.0000E+00  0.8000E+01
   6.000  0.0000E+00  0.8000E+01
   6.010  0.0000E+00  0.8000E+01
   6.020  0.0000E+00  0.8000E+01
   6.030  0.0000E+00  0.8000E+01
   6.040  0.0000E+00  0.8000E+01
   6.050  0.0000E+00  0.8000E+01
   6.060  0.0000E+00  0.8000E+01
   6.070  0.0000E+00  0.8000E+01
   6.080  0.0000E+00  0.8000E+01
   6.090  0.0000E+00  0.8000E+01
   6.100  0.0000E+00  0.8000E+01
   6.110  0.0000E+00  0.8000E+01
   6.120  0.0000E+00  0.8000E+01
   6.130  0.0000E+00  0.8000E+01
   6.140  0.0000E+00  0.8000E+01
   6.150  0.0000E+00  0.8000E+01
   6.160  0.0000E+00  0.8000E+01
   6.170  0.0000E+00  0.8000E+01
   6.180  0.0000E+00  0.8000E+01
   6.190  0.0000E+00  0.8000E+01
   6.200  0.0000E+00  0.8000E+01
   6.210  0.0000E+00  0.8000E+01
   6.220  0.0000E+00  0.8000E+01
   6.230  0.0000E+00  0.8000E+01
   6.240  0.0000E+00  0.8000E+01
   6.250  0.0000E+00  0.8000E+01
   6.260  0.0000E+00  0.8000E+01
   6.270  0.0000E+00  0.8000E+01
   6.280  0.0000E+00  0.8000E+01
   6.290  0.0000E+00  0.8000E+01
   6.300  0.0000E+00  0.8000E+01
   6.310  0.0000E+00  0.8000E+01
   6.320  0.0000E+00  0.8000E+01
   6.330  0.0000E+00  0.8000E+01
   6.340  0.0000E+00  0.8000E+01
   6.350  0.0000E+00  0.8000E+01
   6.360  0.0000E+00  0.8000E+01
   6.370  0.0000E+00  0.8000E+01
   6.380  0.0000E+00  0.8000E+01
   6.390  0.0000E+00  0.8000E+01
   6.400  0.0000E+00  0.8000E+01
   6.410  0.0000E+00  0.8000E+01
   6.420  0.0000E+00  0.8000E+01
   6.430  0.0000E+00  0.8000E+01
   6.440  0.0000E+00  0.8000E+01
   6.450  0.0000E+00  0.8000E+01
   6.460  0.0000E+00  0.8000E+01
   6.470  0.0000E+00  0.8000E+01
   6.480  0.0000E+00  0.8000E+01
   6.490  0.0000E+00  0.8000E+01
   6.500  0.0000E+00  0.8000E+01
   6.510  0.0000E+00  0.8000E+01
   6.520  0.0000E+00  0.8000E+01
   6.530  0.0000E+00  0.8000E+01
   6.540  0.0000E+00  0.8000E+01
   6.550  0.2221E-03  0.8000E+01
   6.560  0.9136E-03  0.8000E+01
   6.570  0.2074E-02  0.8000E+01
   6.580  0.3705E-02  0.8000E+01
   6.590  0.5804E-02  0.8000E+01
   6.600  0.8373E-02  0.8000E+01
   6.610  0.1141E-01  0.8000E+01
   6.620  0.1492E-01  0.8000E+01
   6.630  0.1890E-01  0.8001E+01
   6.640  0.2334E-01  0.8001E+01
   6.650  0.2826E-01  0.8001E+01
   6.660  0.3365E-01  0.8001E+01
   6.670  0.3950E-01  0.8002E+01
   6.680  0.4583E-01  0.8002E+01
   6.690  0.5305E-01  0.8003E+01
   6.700  0.6259E-01  0.8003E+01
   6.710  0.7456E-01  0.8004E+01
   6.720  0.8896E-01  0.8005E+01
   6.730  0.1058E+00  0.8006E+01
   6.740  0.1251E+00  0.8007E+01
   6.750  0.1338E+00  0.8008E+01
   6.760  0.1393E+00  0.8010E+01
   6.770  0.1450E+00  0.8011E+01
   6.780  0.1511E+00  0.8012E+01
   6.790  0.1575E+00  0.8014E+01
   6.800  0.1643E+00  0.8016E+01
   6.810  0.1714E+00  0.8017E+01
   6.820  0.1789E+00  0.8019E+01
   6.830  0.1867E+00  0.8021E+01
   6.840  0.1948E+00  0.8023E+01
   6.850  0.2024E+00  0.8025E+01
   6.860  0.2077E+00  0.8027E+01
   6.870  0.2132E+00  0.8029E+01
   6.880  0.2188E+00  0.8031E+01
   6.890  0.2246E+00  0.8033E+01
   6.900  0.2305E+00  0.8036E+01
   6.910  0.2365E+00  0.8038E+01
   6.920  0.2426E+00  0.8040E+01
   6.930  0.2487E+00  0.8043E+01
   6.940  0.2549E+00  0.8045E+01
   6.950  0.2612E+00  0.8048E+01
   6.960  0.2675E+00  0.8050E+01
   6.970  0.2738E+00  0.8053E+01
   6.980  0.2802E+00  0.8056E+01
   6.990  0.2866E+00  0.8059E+01
   7.000  0.2931E+00  0.8062E+01
   7.010  0.2997E+00  0.8065E+01
   7.020  0.3063E+00  0.8068E+01
   7.030  0.3129E+00  0.8071E+01
   7.040  0.3195E+00  0.8074E+01
   7.050  0.3262E+00  0.8077E+01
   7.060  0.3328E+00  0.8080E+01
   7.070  0.3395E+00  0.8084E+01
   7.080  0.3462E+00  0.8087E+01
   7.090  0.3537E+00  0.8091E+01
   7.100  0.3619E+00  0.8094E+01
   7.110  0.3710E+00  0.8098E+01
   7.120  0.3808E+00  0.8102E+01
   7.130  0.3915E+00  0.8106E+01
   7.140  0.4030E+00  0.8110E+01
   7.150  0.4153E+00  0.8114E+01
   7.160  0.4275E+00  0.8118E+01
   7.170  0.4351E+00  0.8122E+01
   7.180  0.4434E+00  0.8127E+01
   7.190  0.4526E+00  0.8131E+01
   7.200  0.4626E+00  0.8136E+01
   7.210  0.4731E+00  0.8140E+01
   7.220  0.4844E+00  0.8145E+01
   7.230  0.4964E+00  0.8150E+01
   7.240  0.5091E+00  0.8155E+01
   7.250  0.5225E+00  0.8160E+01
   7.260  0.5367E+00  0.8165E+01
   7.270  0.5516E+00  0.8171E+01
   7.280  0.5867E+00  0.8177E+01
   7.290  0.6788E+00  0.8183E+01
   7.300  0.5342E+00  0.8189E+01
   7.310  0.5390E+00  0.8195E+01
   7.320  0.5436E+00  0.8200E+01
   7.330  0.5482E+00  0.8205E+01
   7.340  0.5535E+00  0.8211E+01
   7.350  0.5589E+00  0.8217E+01
   7.360  0.5642E+00  0.8222E+01
   7.370  0.5695E+00  0.8228E+01
   7.380  0.5749E+00  0.8234E+01
   7.390  0.5804E+00  0.8239E+01
   7.400  0.5862E+00  0.8245E+01
   7.410  0.5922E+00  0.8251E+01
   7.420  0.5984E+00  0.8257E+01
   7.430  0.6048E+00  0.8263E+01
   7.440  0.6113E+00  0.8269E+01
   7.450  0.6180E+00  0.8275E+01
   7.460  0.6248E+00  0.8281E+01
   7.470  0.6316E+00  0.8288E+01
   7.480  0.6386E+00  0.8294E+01
   7.490  0.6459E+00  0.8301E+01
   7.500  0.6533E+00  0.8307E+01
   7.510  0.6610E+00  0.8314E+01
   7.520  0.6689E+00  0.8320E+01
   7.530  0.6769E+00  0.8327E+01
   7.540  0.6851E+00  0.8334E+01
   7.550  0.6934E+00  0.8341E+01
   7.560  0.7018E+00  0.8348E+01
   7.570  0.7104E+00  0.8355E+01
   7.580  0.7191E+00  0.8362E+01
   7.590  0.7279E+00  0.8369E+01
   7.600  0.7369E+00  0.8376E+01
   7.610  0.7461E+00  0.8384E+01
   7.620  0.7554E+00  0.8391E+01
   7.630  0.7649E+00  0.8399E+01
   7.640  0.7829E+00  0.8407E+01
   7.650  0.8356E+00  0.8415E+01
   7.660  0.8546E+00  0.8423E+01
   7.670  0.8591E+00  0.8432E+01
   7.680  0.8623E+00  0.8440E+01
   7.690  0.8654E+00  0.8449E+01
   7.700  0.8695E+00  0.8458E+01
   7.710  0.8731E+00  0.8466E+01
   7.720  0.8788E+00  0.8475E+01
   7.730  0.8919E+00  0.8484E+01
   7.740  0.9050E+00  0.8493E+01
   7.750  0.9181E+00  0.8502E+01
   7.760  0.9314E+00  0.8511E+01
   7.770  0.9448E+00  0.8521E+01
   7.780  0.9582E+00  0.8530E+01
   7.790  0.9717E+00  0.8540E+01
   7.800  0.9853E+00  0.8550E+01
   7.810  0.9990E+00  0.8560E+01
   7.820  0.1012E+01  0.8570E+01
   7.830  0.1026E+01  0.8580E+01
   7.840  0.1039E+01  0.8590E+01
   7.850  0.1053E+01  0.8601E+01
   7.860  0.1068E+01  0.8611E+01
   7.870  0.1083E+01  0.8622E+01
   7.880  0.1109E+01  0.8633E+01
   7.890  0.1389E+01  0.8646E+01
   7.900  0.1354E+01  0.8660E+01
   7.910  0.1333E+01  0.8673E+01
   7.920  0.1377E+01  0.8686E+01
   7.930  0.1414E+01  0.8700E+01
   7.940  0.1449E+01  0.8715E+01
   7.950  0.1491E+01  0.8729E+01
   7.960  0.1534E+01  0.8744E+01
   7.970  0.1555E+01  0.8760E+01
   7.980  0.1573E+01  0.8776E+01
   7.990  0.1589E+01  0.8791E+01
   8.000  0.1602E+01  0.8807E+01
   8.010  0.1613E+01  0.8823E+01
   8.020  0.1622E+01  0.8840E+01
   8.030  0.1628E+01  0.8856E+01
   8.040  0.1643E+01  0.8872E+01
   8.050  0.1659E+01  0.8889E+01
   8.060  0.1673E+01  0.8905E+01
   8.070  0.1687E+01  0.8922E+01
   8.080  0.1701E+01  0.8939E+01
   8.090  0.1715E+01  0.8956E+01
   8.100  0.1728E+01  0.8973E+01
   8.110  0.1742E+01  0.8991E+01
   8.120  0.1755E+01  0.9008E+01
   8.130  0.1769E+01  0.9026E+01
   8.140  0.1783E+01  0.9044E+01
   8.150  0.1800E+01  0.9062E+01
   8.160  0.1818E+01  0.9080E+01
   8.170  0.1836E+01  0.9098E+01
   8.180  0.1855E+01  0.9116E+01
   8.190  0.1902E+01  0.9135E+01
   8.200  0.1986E+01  0.9155E+01
   8.210  0.2100E+01  0.9175E+01
   8.220  0.2182E+01  0.9196E+01
   8.230  0.2155E+01  0.9218E+01
   8.240  0.2128E+01  0.9239E+01
   8.250  0.2104E+01  0.9261E+01
   8.260  0.2108E+01  0.9282E+01
   8.270  0.2110E+01  0.9303E+01
   8.280  0.2111E+01  0.9324E+01
   8.290  0.2109E+01  0.9345E+01
   8.300  0.2101E+01  0.9366E+01
   8.310  0.2091E+01  0.9387E+01
   8.320  0.2078E+01  0.9408E+01
   8.330  0.2064E+01  0.9429E+01
   8.340  0.2049E+01  0.9449E+01
   8.350  0.2031E+01  0.9470E+01
   8.360  0.2013E+01  0.9490E+01
   8.370  0.1992E+01  0.9510E+01
   8.380  0.1971E+01  0.9530E+01
   8.390  0.1948E+01  0.9549E+01
   8.400  0.1923E+01  0.9569E+01
   8.410  0.1897E+01  0.9588E+01
   8.420  0.1869E+01  0.9606E+01
   8.430  0.1836E+01  0.9625E+01
   8.440  0.1792E+01  0.9643E+01
   8.450  0.1747E+01  0.9661E+01
   8.460  0.1704E+01  0.9678E+01
   8.470  0.1675E+01  0.9695E+01
   8.480  0.1635E+01  0.9712E+01
   8.490  0.1596E+01  0.9728E+01
   8.500  0.1557E+01  0.9743E+01
   8.510  0.1518E+01  0.9759E+01
   8.520  0.1473E+01  0.9774E+01
   8.530  0.1438E+01  0.9788E+01
   8.540  0.1410E+01  0.9803E+01
   8.550  0.1386E+01  0.9817E+01
   8.560  0.1363E+01  0.9830E+01
   8.570  0.1339E+01  0.9844E+01
   8.580  0.1312E+01  0.9857E+01
   8.590  0.1285E+01  0.9870E+01
   8.600  0.1260E+01  0.9883E+01
   8.610  0.1236E+01  0.9895E+01
   8.620  0.1213E+01  0.9908E+01
   8.630  0.1191E+01  0.9920E+01
   8.640  0.1170E+01  0.9931E+01
   8.650  0.1149E+01  0.9943E+01
   8.660  0.1129E+01  0.9954E+01
   8.670  0.1109E+01  0.9966E+01
   8.680  0.1093E+01  0.9977E+01
   8.690  0.1077E+01  0.9987E+01
   8.700  0.1061E+01  0.9998E+01
   8.710  0.1045E+01  0.1001E+02
   8.720  0.1031E+01  0.1002E+02
   8.730  0.1018E+01  0.1003E+02
   8.740  0.1004E+01  0.1004E+02
   8.750  0.9904E+00  0.1005E+02
   8.760  0.9770E+00  0.1006E+02
   8.770  0.9643E+00  0.1007E+02
   8.780  0.9522E+00  0.1008E+02
   8.790  0.9405E+00  0.1009E+02
   8.800  0.9293E+00  0.1010E+02
   8.810  0.9185E+00  0.1011E+02
   8.820  0.9083E+00  0.1012E+02
   8.830  0.8985E+00  0.1012E+02
   8.840  0.8893E+00  0.1013E+02
   8.850  0.8805E+00  0.1014E+02
   8.860  0.8722E+00  0.1015E+02
   8.870  0.8671E+00  0.1016E+02
   8.880  0.8642E+00  0.1017E+02
   8.890  0.8616E+00  0.1018E+02
   8.900  0.8595E+00  0.1019E+02
   8.910  0.8577E+00  0.1019E+02
   8.920  0.8564E+00  0.1020E+02
   8.930  0.8555E+00  0.1021E+02
   8.940  0.8542E+00  0.1022E+02
   8.950  0.8509E+00  0.1023E+02
   8.960  0.8480E+00  0.1024E+02
   8.970  0.8456E+00  0.1025E+02
   8.980  0.8437E+00  0.1025E+02
   8.990  0.8424E+00  0.1026E+02
   9.000  0.8416E+00  0.1027E+02
   9.010  0.8413E+00  0.1028E+02
   9.020  0.8415E+00  0.1029E+02
   9.030  0.8418E+00  0.1030E+02
   9.040  0.8499E+00  0.1030E+02
   9.050  0.8981E+00  0.1031E+02
   9.060  0.9956E+00  0.1032E+02
   9.070  0.1027E+01  0.1033E+02
   9.080  0.1012E+01  0.1034E+02
   9.090  0.1015E+01  0.1035E+02
   9.100  0.1036E+01  0.1036E+02
   9.110  0.1069E+01  0.1037E+02
   9.120  0.1107E+01  0.1039E+02
   9.130  0.1150E+01  0.1040E+02
   9.140  0.1200E+01  0.1041E+02
   9.150  0.1254E+01  0.1042E+02
   9.160  0.1314E+01  0.1043E+02
   9.170  0.1379E+01  0.1045E+02
   9.180  0.1450E+01  0.1046E+02
   9.190  0.1625E+01  0.1048E+02
   9.200  0.1697E+01  0.1049E+02
   9.210  0.1754E+01  0.1051E+02
   9.220  0.1807E+01  0.1053E+02
   9.230  0.1856E+01  0.1055E+02
   9.240  0.1902E+01  0.1057E+02
   9.250  0.1948E+01  0.1058E+02
   9.260  0.1990E+01  0.1060E+02
   9.270  0.2030E+01  0.1062E+02
   9.280  0.2063E+01  0.1065E+02
   9.290  0.2089E+01  0.1067E+02
   9.300  0.2112E+01  0.1069E+02
   9.310  0.2110E+01  0.1071E+02
   9.320  0.2106E+01  0.1073E+02
   9.330  0.2159E+01  0.1075E+02
   9.340  0.2215E+01  0.1077E+02
   9.350  0.2329E+01  0.1080E+02
   9.360  0.2220E+01  0.1082E+02
   9.370  0.2170E+01  0.1084E+02
   9.380  0.2122E+01  0.1086E+02
   9.390  0.2080E+01  0.1088E+02
   9.400  0.2043E+01  0.1090E+02
   9.410  0.2014E+01  0.1092E+02
   9.420  0.1984E+01  0.1094E+02
   9.430  0.1955E+01  0.1096E+02
   9.440  0.1927E+01  0.1098E+02
   9.450  0.1899E+01  0.1100E+02
   9.460  0.1877E+01  0.1102E+02
   9.470  0.1872E+01  0.1104E+02
   9.480  0.1887E+01  0.1106E+02
   9.490  0.1904E+01  0.1108E+02
   9.500  0.1922E+01  0.1110E+02
   9.510  0.1931E+01  0.1112E+02
   9.520  0.1941E+01  0.1113E+02
   9.530  0.1949E+01  0.1115E+02
   9.540  0.1953E+01  0.1117E+02
   9.550  0.1955E+01  0.1119E+02
   9.560  0.1954E+01  0.1121E+02
   9.570  0.1949E+01  0.1123E+02
   9.580  0.1942E+01  0.1125E+02
   9.590  0.1932E+01  0.1127E+02
   9.600  0.1919E+01  0.1129E+02
   9.610  0.1904E+01  0.1131E+02
   9.620  0.1893E+01  0.1133E+02
   9.630  0.1887E+01  0.1135E+02
   9.640  0.1939E+01  0.1137E+02
   9.650  0.1998E+01  0.1139E+02
   9.660  0.1882E+01  0.1141E+02
   9.670  0.1862E+01  0.1142E+02
   9.680  0.1830E+01  0.1144E+02
   9.690  0.1804E+01  0.1146E+02
   9.700  0.1791E+01  0.1148E+02
   9.710  0.1778E+01  0.1150E+02
   9.720  0.1765E+01  0.1151E+02
   9.730  0.1752E+01  0.1153E+02
   9.740  0.1739E+01  0.1155E+02
   9.750  0.1725E+01  0.1157E+02
   9.760  0.1711E+01  0.1158E+02
   9.770  0.1698E+01  0.1160E+02
   9.780  0.1685E+01  0.1162E+02
   9.790  0.1672E+01  0.1163E+02
   9.800  0.1660E+01  0.1165E+02
   9.810  0.1648E+01  0.1167E+02
   9.820  0.1635E+01  0.1168E+02
   9.830  0.1618E+01  0.1170E+02
   9.840  0.1601E+01  0.1172E+02
   9.850  0.1584E+01  0.1173E+02
   9.860  0.1567E+01  0.1175E+02
   9.870  0.1549E+01  0.1176E+02
   9.880  0.1531E+01  0.1178E+02
   9.890  0.1513E+01  0.1179E+02
   9.900  0.1495E+01  0.1181E+02
   9.910  0.1478E+01  0.1182E+02
   9.920  0.1460E+01  0.1184E+02
   9.930  0.1441E+01  0.1185E+02
   9.940  0.1425E+01  0.1187E+02
   9.950  0.1407E+01  0.1188E+02
   9.960  0.1390E+01  0.1190E+02
   9.970  0.1374E+01  0.1191E+02
   9.980  0.1357E+01  0.1192E+02
   9.990  0.1347E+01  0.1194E+02
  10.000  0.1338E+01  0.1195E+02
  10.010  0.1329E+01  0.1196E+02
  10.020  0.1320E+01  0.1198E+02
  10.030  0.1312E+01  0.1199E+02
  10.040  0.1303E+01  0.1200E+02
  10.050  0.1295E+01  0.1202E+02
  10.060  0.1288E+01  0.1203E+02
  10.070  0.1283E+01  0.1204E+02
  10.080  0.1276E+01  0.1205E+02
  10.090  0.1252E+01  0.1207E+02
  10.100  0.1249E+01  0.1208E+02
  10.110  0.1248E+01  0.1209E+02
  10.120  0.1247E+01  0.1211E+02
  10.130  0.1248E+01  0.1212E+02
  10.140  0.1250E+01  0.1213E+02
  10.150  0.1252E+01  0.1214E+02
  10.160  0.1256E+01  0.1216E+02
  10.170  0.1261E+01  0.1217E+02
  10.180  0.1267E+01  0.1218E+02
  10.190  0.1275E+01  0.1219E+02
  10.200  0.1270E+01  0.1221E+02
  10.210  0.1272E+01  0.1222E+02
  10.220  0.1259E+01  0.1223E+02
  10.230  0.1247E+01  0.1224E+02
  10.240  0.1236E+01  0.1226E+02
  10.250  0.1226E+01  0.1227E+02
  10.260  0.1218E+01  0.1228E+02
  10.270  0.1210E+01  0.1229E+02
  10.280  0.1203E+01  0.1230E+02
  10.290  0.1197E+01  0.1232E+02
  10.300  0.1192E+01  0.1233E+02
  10.310  0.1189E+01  0.1234E+02
  10.320  0.1189E+01  0.1235E+02
  10.330  0.1191E+01  0.1236E+02
  10.340  0.1195E+01  0.1238E+02
  10.350  0.1201E+01  0.1239E+02
  10.360  0.1210E+01  0.1240E+02
  10.370  0.1223E+01  0.1241E+02
  10.380  0.1225E+01  0.1242E+02
  10.390  0.1218E+01  0.1244E+02
  10.400  0.1215E+01  0.1245E+02
  10.410  0.1217E+01  0.1246E+02
  10.420  0.1363E+01  0.1247E+02
  10.430  0.1419E+01  0.1249E+02
  10.440  0.1405E+01  0.1250E+02
  10.450  0.1388E+01  0.1252E+02
  10.460  0.1370E+01  0.1253E+02
  10.470  0.1348E+01  0.1254E+02
  10.480  0.1325E+01  0.1256E+02
  10.490  0.1299E+01  0.1257E+02
  10.500  0.1274E+01  0.1258E+02
  10.510  0.1252E+01  0.1260E+02
  10.520  0.1234E+01  0.1261E+02
  10.530  0.1220E+01  0.1262E+02
  10.540  0.1206E+01  0.1263E+02
  10.550  0.1190E+01  0.1264E+02
  10.560  0.1175E+01  0.1266E+02
  10.570  0.1160E+01  0.1267E+02
  10.580  0.1144E+01  0.1268E+02
  10.590  0.1128E+01  0.1269E+02
  10.600  0.1110E+01  0.1270E+02
  10.610  0.1091E+01  0.1271E+02
  10.620  0.1072E+01  0.1272E+02
  10.630  0.1054E+01  0.1273E+02
  10.640  0.1043E+01  0.1274E+02
  10.650  0.1034E+01  0.1276E+02
  10.660  0.1026E+01  0.1277E+02
  10.670  0.1022E+01  0.1278E+02
  10.680  0.1021E+01  0.1279E+02
  10.690  0.1021E+01  0.1280E+02
  10.700  0.1022E+01  0.1281E+02
  10.710  0.1024E+01  0.1282E+02
  10.720  0.1028E+01  0.1283E+02
  10.730  0.1032E+01  0.1284E+02
  10.740  0.1038E+01  0.1285E+02
  10.750  0.1045E+01  0.1286E+02
  10.760  0.1077E+01  0.1287E+02
  10.770  0.1161E+01  0.1288E+02
  10.780  0.1124E+01  0.1289E+02
  10.790  0.1127E+01  0.1290E+02
  10.800  0.1147E+01  0.1291E+02
  10.810  0.1146E+01  0.1293E+02
  10.820  0.1146E+01  0.1294E+02
  10.830  0.1148E+01  0.1295E+02
  10.840  0.1155E+01  0.1296E+02
  10.850  0.1167E+01  0.1297E+02
  10.860  0.1197E+01  0.1298E+02
  10.870  0.1224E+01  0.1300E+02
  10.880  0.1245E+01  0.1301E+02
  10.890  0.1260E+01  0.1302E+02
  10.900  0.1270E+01  0.1303E+02
  10.910  0.1274E+01  0.1305E+02
  10.920  0.1272E+01  0.1306E+02
  10.930  0.1265E+01  0.1307E+02
  10.940  0.1249E+01  0.1308E+02
  10.950  0.1243E+01  0.1310E+02
  10.960  0.1240E+01  0.1311E+02
  10.970  0.1238E+01  0.1312E+02
  10.980  0.1236E+01  0.1313E+02
  10.990  0.1234E+01  0.1315E+02
  11.000  0.1232E+01  0.1316E+02
  11.010  0.1230E+01  0.1317E+02
  11.020  0.1229E+01  0.1318E+02
  11.030  0.1227E+01  0.1319E+02
  11.040  0.1226E+01  0.1321E+02
  11.050  0.1224E+01  0.1322E+02
  11.060  0.1223E+01  0.1323E+02
  11.070  0.1222E+01  0.1324E+02
  11.080  0.1221E+01  0.1326E+02
  11.090  0.1220E+01  0.1327E+02
  11.100  0.1220E+01  0.1328E+02
  11.110  0.1219E+01  0.1329E+02
  11.120  0.1219E+01  0.1330E+02
  11.130  0.1218E+01  0.1332E+02
  11.140  0.1218E+01  0.1333E+02
  11.150  0.1217E+01  0.1334E+02
  11.160  0.1215E+01  0.1335E+02
  11.170  0.1213E+01  0.1337E+02
  11.180  0.1212E+01  0.1338E+02
  11.190  0.1210E+01  0.1339E+02
  11.200  0.1208E+01  0.1340E+02
  11.210  0.1206E+01  0.1341E+02
  11.220  0.1204E+01  0.1343E+02
  11.230  0.1202E+01  0.1344E+02
  11.240  0.1201E+01  0.1345E+02
  11.250  0.1200E+01  0.1346E+02
  11.260  0.1199E+01  0.1347E+02
  11.270  0.1199E+01  0.1349E+02
  11.280  0.1199E+01  0.1350E+02
  11.290  0.1201E+01  0.1351E+02
  11.300  0.1202E+01  0.1352E+02
  11.310  0.1205E+01  0.1353E+02
  11.320  0.1206E+01  0.1355E+02
  11.330  0.1206E+01  0.1356E+02
  11.340  0.1205E+01  0.1357E+02
  11.350  0.1204E+01  0.1358E+02
  11.360  0.1202E+01  0.1359E+02
  11.370  0.1203E+01  0.1361E+02
  11.380  0.1203E+01  0.1362E+02
  11.390  0.1202E+01  0.1363E+02
  11.400  0.1202E+01  0.1364E+02
  11.410  0.1202E+01  0.1365E+02
  11.420  0.1201E+01  0.1367E+02
  11.430  0.1200E+01  0.1368E+02
  11.440  0.1200E+01  0.1369E+02
  11.450  0.1200E+01  0.1370E+02
  11.460  0.1200E+01  0.1371E+02
  11.470  0.1200E+01  0.1373E+02
  11.480  0.1191E+01  0.1374E+02
  11.490  0.1181E+01  0.1375E+02
  11.500  0.1182E+01  0.1376E+02
  11.510  0.1183E+01  0.1377E+02
  11.520  0.1183E+01  0.1379E+02
  11.530  0.1184E+01  0.1380E+02
  11.540  0.1185E+01  0.1381E+02
  11.550  0.1185E+01  0.1382E+02
  11.560  0.1184E+01  0.1383E+02
  11.570  0.1183E+01  0.1385E+02
  11.580  0.1181E+01  0.1386E+02
  11.590  0.1179E+01  0.1387E+02
  11.600  0.1176E+01  0.1388E+02
  11.610  0.1173E+01  0.1389E+02
  11.620  0.1169E+01  0.1390E+02
  11.630  0.1163E+01  0.1392E+02
  11.640  0.1156E+01  0.1393E+02
  11.650  0.1148E+01  0.1394E+02
  11.660  0.1139E+01  0.1395E+02
  11.670  0.1129E+01  0.1396E+02
  11.680  0.1118E+01  0.1397E+02
  11.690  0.1106E+01  0.1398E+02
  11.700  0.1094E+01  0.1399E+02
  11.710  0.1081E+01  0.1401E+02
  11.720  0.1067E+01  0.1402E+02
  11.730  0.1053E+01  0.1403E+02
  11.740  0.1042E+01  0.1404E+02
  11.750  0.1034E+01  0.1405E+02
  11.760  0.1025E+01  0.1406E+02
  11.770  0.1017E+01  0.1407E+02
  11.780  0.1009E+01  0.1408E+02
  11.790  0.1002E+01  0.1409E+02
  11.800  0.9983E+00  0.1410E+02
  11.810  0.9985E+00  0.1411E+02
  11.820  0.1002E+01  0.1412E+02
  11.830  0.1010E+01  0.1413E+02
  11.840  0.1021E+01  0.1414E+02
  11.850  0.9853E+00  0.1415E+02
  11.860  0.1000E+01  0.1416E+02
  11.870  0.9874E+00  0.1417E+02
  11.880  0.9324E+00  0.1418E+02
  11.890  0.9218E+00  0.1419E+02
  11.900  0.9119E+00  0.1420E+02
  11.910  0.9021E+00  0.1421E+02
  11.920  0.8932E+00  0.1421E+02
  11.930  0.8834E+00  0.1422E+02
  11.940  0.8779E+00  0.1423E+02
  11.950  0.8751E+00  0.1424E+02
  11.960  0.8733E+00  0.1425E+02
  11.970  0.8724E+00  0.1426E+02
  11.980  0.8718E+00  0.1427E+02
  11.990  0.8715E+00  0.1428E+02
  12.000  0.8716E+00  0.1428E+02
  12.010  0.8721E+00  0.1429E+02
  12.020  0.8729E+00  0.1430E+02
  12.030  0.8740E+00  0.1431E+02
  12.040  0.8755E+00  0.1432E+02
  12.050  0.8773E+00  0.1433E+02
  12.060  0.8790E+00  0.1434E+02
  12.070  0.8811E+00  0.1435E+02
  12.080  0.8879E+00  0.1436E+02
  12.090  0.8962E+00  0.1436E+02
  12.100  0.9055E+00  0.1437E+02
  12.110  0.9156E+00  0.1438E+02
  12.120  0.9266E+00  0.1439E+02
  12.130  0.9374E+00  0.1440E+02
  12.140  0.9481E+00  0.1441E+02
  12.150  0.9586E+00  0.1442E+02
  12.160  0.9691E+00  0.1443E+02
  12.170  0.9795E+00  0.1444E+02
  12.180  0.9898E+00  0.1445E+02
  12.190  0.1000E+01  0.1446E+02
  12.200  0.1010E+01  0.1447E+02
  12.210  0.1020E+01  0.1448E+02
  12.220  0.1030E+01  0.1449E+02
  12.230  0.1040E+01  0.1450E+02
  12.240  0.1050E+01  0.1451E+02
  12.250  0.1059E+01  0.1452E+02
  12.260  0.1069E+01  0.1453E+02
  12.270  0.1078E+01  0.1454E+02
  12.280  0.1088E+01  0.1455E+02
  12.290  0.1097E+01  0.1456E+02
  12.300  0.1107E+01  0.1457E+02
  12.310  0.1116E+01  0.1459E+02
  12.320  0.1124E+01  0.1460E+02
  12.330  0.1117E+01  0.1461E+02
  12.340  0.1122E+01  0.1462E+02
  12.350  0.1126E+01  0.1463E+02
  12.360  0.1131E+01  0.1464E+02
  12.370  0.1135E+01  0.1465E+02
  12.380  0.1138E+01  0.1466E+02
  12.390  0.1141E+01  0.1468E+02
  12.400  0.1144E+01  0.1469E+02
  12.410  0.1146E+01  0.1470E+02
  12.420  0.1149E+01  0.1471E+02
  12.430  0.1150E+01  0.1472E+02
  12.440  0.1152E+01  0.1473E+02
  12.450  0.1153E+01  0.1474E+02
  12.460  0.1153E+01  0.1476E+02
  12.470  0.1154E+01  0.1477E+02
  12.480  0.1154E+01  0.1478E+02
  12.490  0.1153E+01  0.1479E+02
  12.500  0.1153E+01  0.1480E+02
  12.510  0.1152E+01  0.1481E+02
  12.520  0.1150E+01  0.1483E+02
  12.530  0.1145E+01  0.1484E+02
  12.540  0.1146E+01  0.1485E+02
  12.550  0.1146E+01  0.1486E+02
  12.560  0.1144E+01  0.1487E+02
  12.570  0.1142E+01  0.1488E+02
  12.580  0.1141E+01  0.1489E+02
  12.590  0.1141E+01  0.1491E+02
  12.600  0.1140E+01  0.1492E+02
  12.610  0.1140E+01  0.1493E+02
  12.620  0.1139E+01  0.1494E+02
  12.630  0.1137E+01  0.1495E+02
  12.640  0.1135E+01  0.1496E+02
  12.650  0.1133E+01  0.1497E+02
  12.660  0.1130E+01  0.1499E+02
  12.670  0.1128E+01  0.1500E+02
  12.680  0.1123E+01  0.1501E+02
  12.690  0.1117E+01  0.1502E+02
  12.700  0.1111E+01  0.1503E+02
  12.710  0.1104E+01  0.1504E+02
  12.720  0.1098E+01  0.1505E+02
  12.730  0.1091E+01  0.1506E+02
  12.740  0.1084E+01  0.1507E+02
  12.750  0.1077E+01  0.1508E+02
  12.760  0.1069E+01  0.1510E+02
  12.770  0.1061E+01  0.1511E+02
  12.780  0.1054E+01  0.1512E+02
  12.790  0.1045E+01  0.1513E+02
  12.800  0.1037E+01  0.1514E+02
  12.810  0.1029E+01  0.1515E+02
  12.820  0.1020E+01  0.1516E+02
  12.830  0.1011E+01  0.1517E+02
  12.840  0.1002E+01  0.1518E+02
  12.850  0.9922E+00  0.1519E+02
  12.860  0.9827E+00  0.1520E+02
  12.870  0.9724E+00  0.1521E+02
  12.880  0.9615E+00  0.1522E+02
  12.890  0.9506E+00  0.1523E+02
  12.900  0.9395E+00  0.1524E+02
  12.910  0.9282E+00  0.1525E+02
  12.920  0.9169E+00  0.1526E+02
  12.930  0.9052E+00  0.1526E+02
  12.940  0.8930E+00  0.1527E+02
  12.950  0.8808E+00  0.1528E+02
  12.960  0.8684E+00  0.1529E+02
  12.970  0.8560E+00  0.1530E+02
  12.980  0.8439E+00  0.1531E+02
  12.990  0.8323E+00  0.1532E+02
  13.000  0.8211E+00  0.1532E+02
  13.010  0.8103E+00  0.1533E+02
  13.020  0.8002E+00  0.1534E+02
  13.030  0.7906E+00  0.1535E+02
  13.040  0.7816E+00  0.1536E+02
  13.050  0.7731E+00  0.1536E+02
  13.060  0.7651E+00  0.1537E+02
  13.070  0.7576E+00  0.1538E+02
  13.080  0.7506E+00  0.1539E+02
  13.090  0.7423E+00  0.1539E+02
  13.100  0.7343E+00  0.1540E+02
  13.110  0.7266E+00  0.1541E+02
  13.120  0.7191E+00  0.1542E+02
  13.130  0.7120E+00  0.1542E+02
  13.140  0.7052E+00  0.1543E+02
  13.150  0.6987E+00  0.1544E+02
  13.160  0.6924E+00  0.1545E+02
  13.170  0.6865E+00  0.1545E+02
  13.180  0.6809E+00  0.1546E+02
  13.190  0.6756E+00  0.1547E+02
  13.200  0.6705E+00  0.1547E+02
  13.210  0.6658E+00  0.1548E+02
  13.220  0.6613E+00  0.1549E+02
  13.230  0.6572E+00  0.1549E+02
  13.240  0.6539E+00  0.1550E+02
  13.250  0.6509E+00  0.1551E+02
  13.260  0.6474E+00  0.1551E+02
  13.270  0.6436E+00  0.1552E+02
  13.280  0.6395E+00  0.1552E+02
  13.290  0.6356E+00  0.1553E+02
  13.300  0.6272E+00  0.1554E+02
  13.310  0.6157E+00  0.1554E+02
  13.320  0.6050E+00  0.1555E+02
  13.330  0.5926E+00  0.1556E+02
  13.340  0.5786E+00  0.1556E+02
  13.350  0.5629E+00  0.1557E+02
  13.360  0.5456E+00  0.1557E+02
  13.370  0.5303E+00  0.1558E+02
  13.380  0.5205E+00  0.1558E+02
  13.390  0.5154E+00  0.1559E+02
  13.400  0.5104E+00  0.1559E+02
  13.410  0.5056E+00  0.1560E+02
  13.420  0.5010E+00  0.1560E+02
  13.430  0.4965E+00  0.1561E+02
  13.440  0.4925E+00  0.1561E+02
  13.450  0.4890E+00  0.1562E+02
  13.460  0.4856E+00  0.1562E+02
  13.470  0.4821E+00  0.1563E+02
  13.480  0.4787E+00  0.1563E+02
  13.490  0.4753E+00  0.1564E+02
  13.500  0.4719E+00  0.1564E+02
  13.510  0.4686E+00  0.1565E+02
  13.520  0.4652E+00  0.1565E+02
  13.530  0.4619E+00  0.1566E+02
  13.540  0.4586E+00  0.1566E+02
  13.550  0.4553E+00  0.1567E+02
  13.560  0.4521E+00  0.1567E+02
  13.570  0.4489E+00  0.1567E+02
  13.580  0.4457E+00  0.1568E+02
  13.590  0.4425E+00  0.1568E+02
  13.600  0.4393E+00  0.1569E+02
  13.610  0.4362E+00  0.1569E+02
  13.620  0.4331E+00  0.1570E+02
  13.630  0.4309E+00  0.1570E+02
  13.640  0.4295E+00  0.1571E+02
  13.650  0.4291E+00  0.1571E+02
  13.660  0.4297E+00  0.1571E+02
  13.670  0.4311E+00  0.1572E+02
  13.680  0.4338E+00  0.1572E+02
  13.690  0.4382E+00  0.1573E+02
  13.700  0.4432E+00  0.1573E+02
  13.710  0.4479E+00  0.1574E+02
  13.720  0.4523E+00  0.1574E+02
  13.730  0.4564E+00  0.1575E+02
  13.740  0.4603E+00  0.1575E+02
  13.750  0.4639E+00  0.1575E+02
  13.760  0.4673E+00  0.1576E+02
  13.770  0.4704E+00  0.1576E+02
  13.780  0.4838E+00  0.1577E+02
  13.790  0.4959E+00  0.1577E+02
  13.800  0.5017E+00  0.1578E+02
  13.810  0.4986E+00  0.1578E+02
  13.820  0.4865E+00  0.1579E+02
  13.830  0.4655E+00  0.1579E+02
  13.840  0.4356E+00  0.1580E+02
  13.850  0.3967E+00  0.1580E+02
  13.860  0.3490E+00  0.1581E+02
  13.870  0.2923E+00  0.1581E+02
  13.880  0.2353E+00  0.1581E+02
  13.890  0.2333E+00  0.1581E+02
  13.900  0.2315E+00  0.1582E+02
  13.910  0.2298E+00  0.1582E+02
  13.920  0.2280E+00  0.1582E+02
  13.930  0.2263E+00  0.1582E+02
  13.940  0.2246E+00  0.1582E+02
  13.950  0.2229E+00  0.1583E+02
  13.960  0.2212E+00  0.1583E+02
  13.970  0.2195E+00  0.1583E+02
  13.980  0.2178E+00  0.1583E+02
  13.990  0.2161E+00  0.1584E+02
  14.000  0.2145E+00  0.1584E+02
  14.010  0.2128E+00  0.1584E+02
  14.020  0.2112E+00  0.1584E+02
  14.030  0.2095E+00  0.1584E+02
  14.040  0.2079E+00  0.1585E+02
  14.050  0.2063E+00  0.1585E+02
  14.060  0.2047E+00  0.1585E+02
  14.070  0.2031E+00  0.1585E+02
  14.080  0.2015E+00  0.1585E+02
  14.090  0.1999E+00  0.1586E+02
  14.100  0.1984E+00  0.1586E+02
  14.110  0.1968E+00  0.1586E+02
  14.120  0.1953E+00  0.1586E+02
  14.130  0.1939E+00  0.1586E+02
  14.140  0.1924E+00  0.1587E+02
  14.150  0.1910E+00  0.1587E+02
  14.160  0.1896E+00  0.1587E+02
  14.170  0.1882E+00  0.1587E+02
  14.180  0.1869E+00  0.1587E+02
  14.190  0.1856E+00  0.1588E+02
  14.200  0.1843E+00  0.1588E+02
  14.210  0.1830E+00  0.1588E+02
  14.220  0.1818E+00  0.1588E+02
  14.230  0.1805E+00  0.1588E+02
  14.240  0.1794E+00  0.1589E+02
  14.250  0.1782E+00  0.1589E+02
  14.260  0.1771E+00  0.1589E+02
  14.270  0.1759E+00  0.1589E+02
  14.280  0.1749E+00  0.1589E+02
  14.290  0.1738E+00  0.1589E+02
  14.300  0.1728E+00  0.1590E+02
  14.310  0.1718E+00  0.1590E+02
  14.320  0.1708E+00  0.1590E+02
  14.330  0.1699E+00  0.1590E+02
  14.340  0.1689E+00  0.1590E+02
  14.350  0.1680E+00  0.1590E+02
  14.360  0.1672E+00  0.1591E+02
  14.370  0.1673E+00  0.1591E+02
  14.380  0.1673E+00  0.1591E+02
  14.390  0.1674E+00  0.1591E+02
  14.400  0.1673E+00  0.1591E+02
  14.410  0.1673E+00  0.1591E+02
  14.420  0.1673E+00  0.1592E+02
  14.430  0.1672E+00  0.1592E+02
  14.440  0.1671E+00  0.1592E+02
  14.450  0.1670E+00  0.1592E+02
  14.460  0.1668E+00  0.1592E+02
  14.470  0.1666E+00  0.1592E+02
  14.480  0.1664E+00  0.1593E+02
  14.490  0.1662E+00  0.1593E+02
  14.500  0.1659E+00  0.1593E+02
  14.510  0.1656E+00  0.1593E+02
  14.520  0.1653E+00  0.1593E+02
  14.530  0.1650E+00  0.1593E+02
  14.540  0.1646E+00  0.1594E+02
  14.550  0.1643E+00  0.1594E+02
  14.560  0.1639E+00  0.1594E+02
  14.570  0.1634E+00  0.1594E+02
  14.580  0.1629E+00  0.1594E+02
  14.590  0.1619E+00  0.1594E+02
  14.600  0.1611E+00  0.1595E+02
  14.610  0.1606E+00  0.1595E+02
  14.620  0.1604E+00  0.1595E+02
  14.630  0.1605E+00  0.1595E+02
  14.640  0.1610E+00  0.1595E+02
  14.650  0.1618E+00  0.1595E+02
  14.660  0.1629E+00  0.1596E+02
  14.670  0.1643E+00  0.1596E+02
  14.680  0.1686E+00  0.1596E+02
  14.690  0.1722E+00  0.1596E+02
  14.700  0.1747E+00  0.1596E+02
  14.710  0.1759E+00  0.1596E+02
  14.720  0.1760E+00  0.1597E+02
  14.730  0.1749E+00  0.1597E+02
  14.740  0.1726E+00  0.1597E+02
  14.750  0.1691E+00  0.1597E+02
  14.760  0.1644E+00  0.1597E+02
  14.770  0.1586E+00  0.1597E+02
  14.780  0.1515E+00  0.1598E+02
  14.790  0.1433E+00  0.1598E+02
  14.800  0.1338E+00  0.1598E+02
  14.810  0.1232E+00  0.1598E+02
  14.820  0.1114E+00  0.1598E+02
  14.830  0.9840E-01  0.1598E+02
  14.840  0.8931E-01  0.1598E+02
  14.850  0.8328E-01  0.1598E+02
  14.860  0.7694E-01  0.1598E+02
  14.870  0.7028E-01  0.1599E+02
  14.880  0.6331E-01  0.1599E+02
  14.890  0.5601E-01  0.1599E+02
  14.900  0.4840E-01  0.1599E+02
  14.910  0.4254E-01  0.1599E+02
  14.920  0.4157E-01  0.1599E+02
  14.930  0.4061E-01  0.1599E+02
  14.940  0.3967E-01  0.1599E+02
  14.950  0.3874E-01  0.1599E+02
  14.960  0.3781E-01  0.1599E+02
  14.970  0.3690E-01  0.1599E+02
  14.980  0.3600E-01  0.1599E+02
  14.990  0.3511E-01  0.1599E+02
  15.000  0.3423E-01  0.1599E+02
  15.010  0.3337E-01  0.1599E+02
  15.020  0.3251E-01  0.1599E+02
  15.030  0.3167E-01  0.1599E+02
  15.040  0.3083E-01  0.1599E+02
  15.050  0.3001E-01  0.1599E+02
  15.060  0.2920E-01  0.1599E+02
  15.070  0.2840E-01  0.1599E+02
  15.080  0.2761E-01  0.1599E+02
  15.090  0.2683E-01  0.1599E+02
  15.100  0.2607E-01  0.1599E+02
  15.110  0.2531E-01  0.1599E+02
  15.120  0.2457E-01  0.1599E+02
  15.130  0.2383E-01  0.1599E+02
  15.140  0.2311E-01  0.1600E+02
  15.150  0.2240E-01  0.1600E+02
  15.160  0.2170E-01  0.1600E+02
  15.170  0.2101E-01  0.1600E+02
  15.180  0.2033E-01  0.1600E+02
  15.190  0.1967E-01  0.1600E+02
  15.200  0.1901E-01  0.1600E+02
  15.210  0.1837E-01  0.1600E+02
  15.220  0.1773E-01  0.1600E+02
  15.230  0.1711E-01  0.1600E+02
  15.240  0.1650E-01  0.1600E+02
  15.250  0.1590E-01  0.1600E+02
  15.260  0.1531E-01  0.1600E+02
  15.270  0.1473E-01  0.1600E+02
  15.280  0.1417E-01  0.1600E+02
  15.290  0.1361E-01  0.1600E+02
  15.300  0.1307E-01  0.1600E+02
  15.310  0.1253E-01  0.1600E+02
  15.320  0.1201E-01  0.1600E+02
  15.330  0.1150E-01  0.1600E+02
  15.340  0.1100E-01  0.1600E+02
  15.350  0.1051E-01  0.1600E+02
  15.360  0.1003E-01  0.1600E+02
  15.370  0.9565E-02  0.1600E+02
  15.380  0.9109E-02  0.1600E+02
  15.390  0.8665E-02  0.1600E+02
  15.400  0.8232E-02  0.1600E+02
  15.410  0.7809E-02  0.1600E+02
  15.420  0.7398E-02  0.1600E+02
  15.430  0.6998E-02  0.1600E+02
  15.440  0.6609E-02  0.1600E+02
  15.450  0.6232E-02  0.1600E+02
  15.460  0.5865E-02  0.1600E+02
  15.470  0.5510E-02  0.1600E+02
  15.480  0.5165E-02  0.1600E+02
  15.490  0.4832E-02  0.1600E+02
  15.500  0.4510E-02  0.1600E+02
  15.510  0.4199E-02  0.1600E+02
  15.520  0.3899E-02  0.1600E+02
  15.530  0.3610E-02  0.1600E+02
  15.540  0.3332E-02  0.1600E+02
  15.550  0.3065E-02  0.1600E+02
  15.560  0.2810E-02  0.1600E+02
  15.570  0.2566E-02  0.1600E+02
  15.580  0.2332E-02  0.1600E+02
  15.590  0.2110E-02  0.1600E+02
  15.600  0.1899E-02  0.1600E+02
  15.610  0.1699E-02  0.1600E+02
  15.620  0.1510E-02  0.1600E+02
  15.630  0.1333E-02  0.1600E+02
  15.640  0.1166E-02  0.1600E+02
  15.650  0.1011E-02  0.1600E+02
  15.660  0.8664E-03  0.1600E+02
  15.670  0.7332E-03  0.1600E+02
  15.680  0.6111E-03  0.1600E+02
  15.690  0.5001E-03  0.1600E+02
  15.700  0.4002E-03  0.1600E+02
  15.710  0.3114E-03  0.1600E+02
  15.720  0.2338E-03  0.1600E+02
  15.730  0.1673E-03  0.1600E+02
  15.740  0.1118E-03  0.1600E+02
  15.750  0.6753E-04  0.1600E+02
  15.760  0.3434E-04  0.1600E+02
  15.770  0.1227E-04  0.1600E+02
  15.780  0.1312E-05  0.1600E+02
  15.790  0.0000E+00  0.1600E+02
  15.800  0.0000E+00  0.1600E+02
  15.810  0.0000E+00  0.1600E+02
  15.820  0.0000E+00  0.1600E+02
  15.830  0.0000E+00  0.1600E+02
  15.840  0.0000E+00  0.1600E+02
  15.850  0.0000E+00  0.1600E+02
  15.860  0.0000E+00  0.1600E+02
  15.870  0.0000E+00  0.1600E+02
  15.880  0.0000E+00  0.1600E+02
  15.890  0.0000E+00  0.1600E+02
  15.900  0.0000E+00  0.1600E+02
  15.910  0.0000E+00  0.1600E+02
  15.920  0.0000E+00  0.1600E+02
  15.930  0.0000E+00  0.1600E+02
  15.940  0.0000E+00  0.1600E+02
  15.950  0.0000E+00  0.1600E+02
  15.960  0.0000E+00  0.1600E+02
  15.970  0.0000E+00  0.1600E+02
  15.980  0.0000E+00  0.1600E+02
  15.990  0.0000E+00  0.1600E+02
  16.000  0.0000E+00  0.1600E+02
